%Channels,1,
%Samples,6163,
%Date,3/6/2015,
%Time,11:55:06,
%Y_Unit_Label,Angle (deg),
%X_Dimension,Time (s),
%X0,55:06.4,
%Delta_X,0.02,
%***End_of_Header***,,
%X_Value,03/06/2015 11:55:02 AM - Angular - Dev1_ctr0,Comment
0,0,
0.02,0,
0.04,0,
0.06,0,
0.08,0,
0.1,0,
0.12,0,
0.14,0,
0.16,0,
0.18,0,
0.2,0,
0.22,0,
0.24,0,
0.26,0,
0.28,0,
0.3,0,
0.32,0,
0.34,0,
0.36,0,
0.38,0,
0.4,0,
0.42,0,
0.44,0,
0.46,0,
0.48,0,
0.5,0,
0.52,0,
0.54,0,
0.56,0,
0.58,0,
0.6,0,
0.62,0,
0.64,0,
0.66,0,
0.68,0,
0.7,0,
0.72,0,
0.74,0,
0.76,0,
0.78,0,
0.8,0,
0.82,0,
0.84,0,
0.86,0,
0.88,0,
0.9,0,
0.92,0,
0.94,0,
0.96,0,
0.98,0,
1,0,
1.02,0,
1.04,0,
1.06,0,
1.08,0,
1.1,0,
1.12,0,
1.14,0,
1.16,0,
1.18,0,
1.2,0,
1.22,0,
1.24,0,
1.26,0,
1.28,0,
1.3,0,
1.32,0,
1.34,0,
1.36,0,
1.38,0,
1.4,0,
1.42,0,
1.44,0,
1.46,0,
1.48,0,
1.5,0,
1.52,0,
1.54,0,
1.56,0,
1.58,0,
1.6,0,
1.62,0,
1.64,0,
1.66,0,
1.68,0,
1.7,0,
1.72,0,
1.74,0,
1.76,0,
1.78,0,
1.8,0,
1.82,0,
1.84,0,
1.86,0,
1.88,0,
1.9,0,
1.92,0,
1.94,0,
1.96,0,
1.98,0,
2,0,
2.02,0,
2.04,0,
2.06,0,
2.08,0,
2.1,0,
2.12,0,
2.14,0,
2.16,0,
2.18,0,
2.2,0,
2.22,0,
2.24,-0.036,
2.26,-0.072,
2.28,-0.108,
2.3,-0.216,
2.32,-0.324,
2.34,-0.468,
2.36,-0.648,
2.38,-0.864,
2.4,-1.152,
2.42,-1.44,
2.44,-1.764,
2.46,-2.124,
2.48,-2.52,
2.5,-2.88,
2.52,-3.312,
2.54,-3.708,
2.56,-4.14,
2.58,-4.536,
2.6,-5.004,
2.62,-5.436,
2.64,-5.868,
2.66,-6.336,
2.68,-6.804,
2.7,-7.308,
2.72,-7.812,
2.74,-8.352,
2.76,-8.892,
2.78,-9.468,
2.8,-10.08,
2.82,-10.692,
2.84,-11.34,
2.86,-12.024,
2.88,-12.672,
2.9,-13.392,
2.92,-14.076,
2.94,-14.796,
2.96,-15.516,
2.98,-16.2,
3,-16.956,
3.02,-17.676,
3.04,-18.432,
3.06,-19.152,
3.08,-19.872,
3.1,-20.664,
3.12,-21.384,
3.14,-22.14,
3.16,-22.896,
3.18,-23.616,
3.2,-24.336,
3.22,-25.092,
3.24,-25.812,
3.26,-26.568,
3.28,-27.288,
3.3,-28.008,
3.32,-28.728,
3.34,-29.448,
3.36,-30.132,
3.38,-30.852,
3.4,-31.5,
3.42,-32.148,
3.44,-32.76,
3.46,-33.3,
3.48,-33.84,
3.5,-34.308,
3.52,-34.776,
3.54,-35.208,
3.56,-35.604,
3.58,-36,
3.6,-36.36,
3.62,-36.648,
3.64,-36.972,
3.66,-37.224,
3.68,-37.512,
3.7,-37.728,
3.72,-37.98,
3.74,-38.16,
3.76,-38.376,
3.78,-38.556,
3.8,-38.7,
3.82,-38.844,
3.84,-38.988,
3.86,-39.096,
3.88,-39.204,
3.9,-39.276,
3.92,-39.348,
3.94,-39.42,
3.96,-39.456,
3.98,-39.528,
4,-39.564,
4.02,-39.636,
4.04,-39.708,
4.06,-39.78,
4.08,-39.888,
4.1,-39.96,
4.12,-40.104,
4.14,-40.176,
4.16,-40.32,
4.18,-40.428,
4.2,-40.536,
4.22,-40.644,
4.24,-40.752,
4.26,-40.86,
4.28,-40.968,
4.3,-41.04,
4.32,-41.148,
4.34,-41.22,
4.36,-41.328,
4.38,-41.4,
4.4,-41.508,
4.42,-41.616,
4.44,-41.688,
4.46,-41.796,
4.48,-41.868,
4.5,-41.976,
4.52,-42.048,
4.54,-42.12,
4.56,-42.192,
4.58,-42.264,
4.6,-42.336,
4.62,-42.408,
4.64,-42.444,
4.66,-42.516,
4.68,-42.552,
4.7,-42.588,
4.72,-42.624,
4.74,-42.696,
4.76,-42.732,
4.78,-42.768,
4.8,-42.804,
4.82,-42.876,
4.84,-42.948,
4.86,-43.02,
4.88,-43.092,
4.9,-43.164,
4.92,-43.272,
4.94,-43.344,
4.96,-43.452,
4.98,-43.56,
5,-43.668,
5.02,-43.776,
5.04,-43.848,
5.06,-43.956,
5.08,-44.064,
5.1,-44.172,
5.12,-44.28,
5.14,-44.388,
5.16,-44.496,
5.18,-44.64,
5.2,-44.784,
5.22,-44.964,
5.24,-45.144,
5.26,-45.324,
5.28,-45.504,
5.3,-45.72,
5.32,-45.972,
5.34,-46.224,
5.36,-46.476,
5.38,-46.728,
5.4,-47.016,
5.42,-47.268,
5.44,-47.556,
5.46,-47.808,
5.48,-48.096,
5.5,-48.348,
5.52,-48.6,
5.54,-48.816,
5.56,-49.032,
5.58,-49.248,
5.6,-49.464,
5.62,-49.644,
5.64,-49.824,
5.66,-49.968,
5.68,-50.112,
5.7,-50.256,
5.72,-50.4,
5.74,-50.508,
5.76,-50.616,
5.78,-50.724,
5.8,-50.832,
5.82,-50.904,
5.84,-51.012,
5.86,-51.084,
5.88,-51.12,
5.9,-51.192,
5.92,-51.228,
5.94,-51.228,
5.96,-51.264,
5.98,-51.264,
6,-51.264,
6.02,-51.264,
6.04,-51.264,
6.06,-51.264,
6.08,-51.228,
6.1,-51.192,
6.12,-51.156,
6.14,-51.12,
6.16,-51.048,
6.18,-51.012,
6.2,-50.94,
6.22,-50.904,
6.24,-50.832,
6.26,-50.796,
6.28,-50.76,
6.3,-50.724,
6.32,-50.688,
6.34,-50.652,
6.36,-50.652,
6.38,-50.652,
6.4,-50.652,
6.42,-50.688,
6.44,-50.724,
6.46,-50.796,
6.48,-50.868,
6.5,-50.94,
6.52,-51.012,
6.54,-51.084,
6.56,-51.12,
6.58,-51.192,
6.6,-51.228,
6.62,-51.228,
6.64,-51.264,
6.66,-51.3,
6.68,-51.336,
6.7,-51.372,
6.72,-51.408,
6.74,-51.444,
6.76,-51.516,
6.78,-51.624,
6.8,-51.696,
6.82,-51.804,
6.84,-51.948,
6.86,-52.056,
6.88,-52.2,
6.9,-52.308,
6.92,-52.416,
6.94,-52.524,
6.96,-52.632,
6.98,-52.704,
7,-52.776,
7.02,-52.812,
7.04,-52.884,
7.06,-52.92,
7.08,-52.956,
7.1,-52.992,
7.12,-52.992,
7.14,-53.028,
7.16,-53.028,
7.18,-53.064,
7.2,-53.064,
7.22,-53.064,
7.24,-53.064,
7.26,-53.064,
7.28,-53.028,
7.3,-52.992,
7.32,-52.956,
7.34,-52.884,
7.36,-52.848,
7.38,-52.74,
7.4,-52.632,
7.42,-52.56,
7.44,-52.416,
7.46,-52.308,
7.48,-52.164,
7.5,-51.984,
7.52,-51.84,
7.54,-51.66,
7.56,-51.48,
7.58,-51.264,
7.6,-51.084,
7.62,-50.832,
7.64,-50.616,
7.66,-50.364,
7.68,-50.112,
7.7,-49.824,
7.72,-49.536,
7.74,-49.212,
7.76,-48.888,
7.78,-48.564,
7.8,-48.24,
7.82,-47.952,
7.84,-47.664,
7.86,-47.412,
7.88,-47.196,
7.9,-47.016,
7.92,-46.836,
7.94,-46.692,
7.96,-46.584,
7.98,-46.476,
8,-46.404,
8.02,-46.332,
8.04,-46.296,
8.06,-46.224,
8.08,-46.188,
8.1,-46.152,
8.12,-46.116,
8.14,-46.08,
8.16,-46.08,
8.18,-46.08,
8.2,-46.08,
8.22,-46.08,
8.24,-46.08,
8.26,-46.116,
8.28,-46.116,
8.3,-46.152,
8.32,-46.224,
8.34,-46.26,
8.36,-46.296,
8.38,-46.368,
8.4,-46.404,
8.42,-46.476,
8.44,-46.512,
8.46,-46.512,
8.48,-46.548,
8.5,-46.548,
8.52,-46.548,
8.54,-46.548,
8.56,-46.548,
8.58,-46.548,
8.6,-46.512,
8.62,-46.476,
8.64,-46.44,
8.66,-46.404,
8.68,-46.368,
8.7,-46.296,
8.72,-46.26,
8.74,-46.224,
8.76,-46.188,
8.78,-46.152,
8.8,-46.152,
8.82,-46.116,
8.84,-46.08,
8.86,-46.08,
8.88,-46.044,
8.9,-46.044,
8.92,-46.008,
8.94,-45.972,
8.96,-45.936,
8.98,-45.936,
9,-45.9,
9.02,-45.864,
9.04,-45.864,
9.06,-45.828,
9.08,-45.792,
9.1,-45.792,
9.12,-45.756,
9.14,-45.72,
9.16,-45.684,
9.18,-45.648,
9.2,-45.576,
9.22,-45.504,
9.24,-45.468,
9.26,-45.36,
9.28,-45.288,
9.3,-45.18,
9.32,-45.072,
9.34,-45,
9.36,-44.892,
9.38,-44.82,
9.4,-44.748,
9.42,-44.676,
9.44,-44.604,
9.46,-44.532,
9.48,-44.496,
9.5,-44.424,
9.52,-44.424,
9.54,-44.388,
9.56,-44.352,
9.58,-44.352,
9.6,-44.352,
9.62,-44.352,
9.64,-44.352,
9.66,-44.352,
9.68,-44.352,
9.7,-44.352,
9.72,-44.388,
9.74,-44.388,
9.76,-44.388,
9.78,-44.388,
9.8,-44.388,
9.82,-44.388,
9.84,-44.388,
9.86,-44.388,
9.88,-44.388,
9.9,-44.388,
9.92,-44.388,
9.94,-44.424,
9.96,-44.424,
9.98,-44.424,
10,-44.46,
10.02,-44.496,
10.04,-44.532,
10.06,-44.604,
10.08,-44.64,
10.1,-44.712,
10.12,-44.784,
10.14,-44.856,
10.16,-44.892,
10.18,-44.928,
10.2,-44.964,
10.22,-44.964,
10.24,-44.964,
10.26,-44.964,
10.28,-44.928,
10.3,-44.892,
10.32,-44.892,
10.34,-44.892,
10.36,-44.856,
10.38,-44.856,
10.4,-44.892,
10.42,-44.892,
10.44,-44.928,
10.46,-44.964,
10.48,-45.036,
10.5,-45.072,
10.52,-45.108,
10.54,-45.18,
10.56,-45.216,
10.58,-45.252,
10.6,-45.288,
10.62,-45.288,
10.64,-45.288,
10.66,-45.324,
10.68,-45.324,
10.7,-45.324,
10.72,-45.324,
10.74,-45.36,
10.76,-45.36,
10.78,-45.396,
10.8,-45.432,
10.82,-45.432,
10.84,-45.468,
10.86,-45.504,
10.88,-45.54,
10.9,-45.576,
10.92,-45.576,
10.94,-45.576,
10.96,-45.612,
10.98,-45.612,
11,-45.576,
11.02,-45.576,
11.04,-45.54,
11.06,-45.54,
11.08,-45.54,
11.1,-45.504,
11.12,-45.504,
11.14,-45.504,
11.16,-45.504,
11.18,-45.504,
11.2,-45.54,
11.22,-45.54,
11.24,-45.54,
11.26,-45.576,
11.28,-45.576,
11.3,-45.576,
11.32,-45.576,
11.34,-45.612,
11.36,-45.612,
11.38,-45.612,
11.4,-45.612,
11.42,-45.648,
11.44,-45.648,
11.46,-45.648,
11.48,-45.648,
11.5,-45.648,
11.52,-45.648,
11.54,-45.648,
11.56,-45.648,
11.58,-45.648,
11.6,-45.648,
11.62,-45.612,
11.64,-45.612,
11.66,-45.612,
11.68,-45.612,
11.7,-45.612,
11.72,-45.612,
11.74,-45.612,
11.76,-45.612,
11.78,-45.612,
11.8,-45.612,
11.82,-45.612,
11.84,-45.612,
11.86,-45.612,
11.88,-45.612,
11.9,-45.612,
11.92,-45.612,
11.94,-45.612,
11.96,-45.612,
11.98,-45.612,
12,-45.648,
12.02,-45.648,
12.04,-45.648,
12.06,-45.648,
12.08,-45.648,
12.1,-45.648,
12.12,-45.648,
12.14,-45.576,
12.16,-45.432,
12.18,-45.18,
12.2,-44.892,
12.22,-44.352,
12.24,-43.596,
12.26,-42.552,
12.28,-41.58,
12.3,-40.176,
12.32,-38.628,
12.34,-36.936,
12.36,-35.064,
12.38,-33.048,
12.4,-30.816,
12.42,-28.512,
12.44,-26.064,
12.46,-23.436,
12.48,-20.808,
12.5,-18,
12.52,-15.192,
12.54,-12.276,
12.56,-9.288,
12.58,-6.192,
12.6,-3.132,
12.62,-0.072,
12.64,3.06,
12.66,6.084,
12.68,9.108,
12.7,12.096,
12.72,14.976,
12.74,17.856,
12.76,20.7,
12.78,23.4,
12.8,25.956,
12.82,28.476,
12.84,30.78,
12.86,32.94,
12.88,34.92,
12.9,36.72,
12.92,38.376,
12.94,39.816,
12.96,41.112,
12.98,42.192,
13,43.092,
13.02,43.776,
13.04,44.28,
13.06,44.568,
13.08,44.64,
13.1,44.532,
13.12,44.244,
13.14,43.704,
13.16,42.984,
13.18,42.084,
13.2,40.968,
13.22,39.672,
13.24,38.196,
13.26,36.576,
13.28,34.74,
13.3,32.796,
13.32,30.672,
13.34,28.368,
13.36,25.956,
13.38,23.364,
13.4,20.7,
13.42,17.928,
13.44,15.012,
13.46,12.132,
13.48,9.216,
13.5,6.228,
13.52,3.168,
13.54,0.18,
13.56,-2.844,
13.58,-5.904,
13.6,-8.892,
13.62,-11.88,
13.64,-14.76,
13.66,-17.568,
13.68,-20.304,
13.7,-22.896,
13.72,-25.344,
13.74,-27.792,
13.76,-30.024,
13.78,-32.184,
13.8,-34.128,
13.82,-35.964,
13.84,-37.656,
13.86,-39.132,
13.88,-40.464,
13.9,-41.544,
13.92,-42.48,
13.94,-43.2,
13.96,-43.704,
13.98,-44.028,
14,-44.172,
14.02,-44.1,
14.04,-43.848,
14.06,-43.344,
14.08,-42.696,
14.1,-41.832,
14.12,-40.752,
14.14,-39.528,
14.16,-38.088,
14.18,-36.432,
14.2,-34.668,
14.22,-32.688,
14.24,-30.6,
14.26,-28.332,
14.28,-25.992,
14.3,-23.508,
14.32,-20.916,
14.34,-18.288,
14.36,-15.552,
14.38,-12.672,
14.4,-9.936,
14.42,-6.84,
14.44,-3.852,
14.46,-0.864,
14.48,2.196,
14.5,5.148,
14.52,8.1,
14.54,10.98,
14.56,13.824,
14.58,16.668,
14.6,19.44,
14.62,22.068,
14.64,24.624,
14.66,27.036,
14.68,29.304,
14.7,31.464,
14.72,33.408,
14.74,35.208,
14.76,36.864,
14.78,38.376,
14.8,39.636,
14.82,40.788,
14.84,41.688,
14.86,42.372,
14.88,42.948,
14.9,43.272,
14.92,43.38,
14.94,43.344,
14.96,43.092,
14.98,42.624,
15,41.976,
15.02,41.184,
15.04,40.068,
15.06,38.88,
15.08,37.476,
15.1,35.892,
15.12,34.128,
15.14,32.328,
15.16,30.24,
15.18,28.008,
15.2,25.668,
15.22,23.184,
15.24,20.592,
15.26,17.928,
15.28,15.156,
15.3,12.348,
15.32,9.432,
15.34,6.552,
15.36,3.6,
15.38,0.612,
15.4,-2.268,
15.42,-5.22,
15.44,-8.028,
15.46,-11.052,
15.48,-13.896,
15.5,-16.596,
15.52,-19.404,
15.54,-21.852,
15.56,-24.228,
15.58,-26.676,
15.6,-28.764,
15.62,-30.924,
15.64,-32.904,
15.66,-34.704,
15.68,-36.324,
15.7,-37.8,
15.72,-39.096,
15.74,-40.212,
15.76,-41.112,
15.78,-41.904,
15.8,-42.408,
15.82,-42.768,
15.84,-42.912,
15.86,-42.876,
15.88,-42.624,
15.9,-42.192,
15.92,-41.58,
15.94,-40.752,
15.96,-39.78,
15.98,-38.52,
16,-37.152,
16.02,-35.64,
16.04,-33.876,
16.06,-31.968,
16.08,-29.916,
16.1,-27.756,
16.12,-25.488,
16.14,-23.04,
16.16,-20.556,
16.18,-18.144,
16.2,-15.48,
16.22,-12.6,
16.24,-9.756,
16.26,-6.84,
16.28,-3.996,
16.3,-1.116,
16.32,1.764,
16.34,4.788,
16.36,7.524,
16.38,10.404,
16.4,13.284,
16.42,15.984,
16.44,18.684,
16.46,21.276,
16.48,23.616,
16.5,26.136,
16.52,28.368,
16.54,30.456,
16.56,32.4,
16.58,34.056,
16.6,35.712,
16.62,37.188,
16.64,38.412,
16.66,39.564,
16.68,40.464,
16.7,41.148,
16.72,41.688,
16.74,42.048,
16.76,42.156,
16.78,42.12,
16.8,41.904,
16.82,41.472,
16.84,40.824,
16.86,40.032,
16.88,39.024,
16.9,37.8,
16.92,36.432,
16.94,34.992,
16.96,33.264,
16.98,31.464,
17,29.448,
17.02,27.216,
17.04,24.948,
17.06,22.536,
17.08,20.124,
17.1,17.532,
17.12,14.832,
17.14,12.096,
17.16,9.18,
17.18,6.48,
17.2,3.6,
17.22,0.756,
17.24,-2.16,
17.26,-5.04,
17.28,-7.848,
17.3,-10.8,
17.32,-13.392,
17.34,-16.092,
17.36,-18.72,
17.38,-21.24,
17.4,-23.616,
17.42,-25.956,
17.44,-28.008,
17.46,-30.06,
17.48,-31.968,
17.5,-33.732,
17.52,-35.316,
17.54,-36.792,
17.56,-38.016,
17.58,-39.096,
17.6,-39.96,
17.62,-40.68,
17.64,-41.22,
17.66,-41.544,
17.68,-41.688,
17.7,-41.616,
17.72,-41.4,
17.74,-40.968,
17.76,-40.356,
17.78,-39.564,
17.8,-38.556,
17.82,-37.404,
17.84,-36.036,
17.86,-34.524,
17.88,-32.832,
17.9,-31.032,
17.92,-29.016,
17.94,-26.856,
17.96,-24.66,
17.98,-22.32,
18,-19.872,
18.02,-17.352,
18.04,-14.796,
18.06,-12.096,
18.08,-9.324,
18.1,-6.516,
18.12,-3.708,
18.14,-0.864,
18.16,1.944,
18.18,4.788,
18.2,7.632,
18.22,10.368,
18.24,13.104,
18.26,15.732,
18.28,18.36,
18.3,20.844,
18.32,23.256,
18.34,25.56,
18.36,27.72,
18.38,29.772,
18.4,31.608,
18.42,33.3,
18.44,34.884,
18.46,36.288,
18.48,37.512,
18.5,38.556,
18.52,39.42,
18.54,40.068,
18.56,40.572,
18.58,40.896,
18.6,41.004,
18.62,40.932,
18.64,40.68,
18.66,40.248,
18.68,39.6,
18.7,38.772,
18.72,37.764,
18.74,36.576,
18.76,35.244,
18.78,33.732,
18.8,32.076,
18.82,30.276,
18.84,28.26,
18.86,26.172,
18.88,23.94,
18.9,21.564,
18.92,19.116,
18.94,16.56,
18.96,13.896,
18.98,11.232,
19,8.46,
19.02,5.76,
19.04,2.952,
19.06,0.144,
19.08,-2.7,
19.1,-5.436,
19.12,-8.244,
19.14,-10.908,
19.16,-13.608,
19.18,-16.2,
19.2,-18.72,
19.22,-21.132,
19.24,-23.364,
19.26,-25.632,
19.28,-27.684,
19.3,-29.628,
19.32,-31.464,
19.34,-33.156,
19.36,-34.668,
19.38,-36.036,
19.4,-37.224,
19.42,-38.196,
19.44,-39.06,
19.46,-39.708,
19.48,-40.176,
19.5,-40.428,
19.52,-40.536,
19.54,-40.428,
19.56,-40.176,
19.58,-39.708,
19.6,-39.024,
19.62,-38.232,
19.64,-37.224,
19.66,-36.036,
19.68,-34.668,
19.7,-33.156,
19.72,-31.464,
19.74,-29.628,
19.76,-27.648,
19.78,-25.596,
19.8,-23.4,
19.82,-21.024,
19.84,-18.648,
19.86,-16.2,
19.88,-13.644,
19.9,-11.016,
19.92,-8.28,
19.94,-5.544,
19.96,-2.808,
19.98,-0.072,
20,2.736,
20.02,5.472,
20.04,8.172,
20.06,10.872,
20.08,13.536,
20.1,16.056,
20.12,18.612,
20.14,20.988,
20.16,23.328,
20.18,25.524,
20.2,27.612,
20.22,29.52,
20.24,31.32,
20.26,32.94,
20.28,34.38,
20.3,35.676,
20.32,36.828,
20.34,37.8,
20.36,38.592,
20.38,39.168,
20.4,39.6,
20.42,39.816,
20.44,39.888,
20.46,39.744,
20.48,39.42,
20.5,38.916,
20.52,38.232,
20.54,37.368,
20.56,36.324,
20.58,35.1,
20.6,33.732,
20.62,32.22,
20.64,30.564,
20.66,28.728,
20.68,26.748,
20.7,24.624,
20.72,22.392,
20.74,20.088,
20.76,17.568,
20.78,15.12,
20.8,12.564,
20.82,9.9,
20.84,7.236,
20.86,4.5,
20.88,1.764,
20.9,-0.9,
20.92,-3.6,
20.94,-6.336,
20.96,-9,
20.98,-11.664,
21,-14.22,
21.02,-16.704,
21.04,-19.152,
21.06,-21.384,
21.08,-23.616,
21.1,-25.704,
21.12,-27.684,
21.14,-29.52,
21.16,-31.248,
21.18,-32.796,
21.2,-34.236,
21.22,-35.496,
21.24,-36.576,
21.26,-37.476,
21.28,-38.232,
21.3,-38.772,
21.32,-39.132,
21.34,-39.348,
21.36,-39.348,
21.38,-39.168,
21.4,-38.844,
21.42,-38.304,
21.44,-37.62,
21.46,-36.72,
21.48,-35.64,
21.5,-34.416,
21.52,-33.048,
21.54,-31.5,
21.56,-29.808,
21.58,-27.936,
21.6,-25.992,
21.62,-23.904,
21.64,-21.708,
21.66,-19.44,
21.68,-17.028,
21.7,-14.616,
21.72,-12.096,
21.74,-9.468,
21.76,-6.84,
21.78,-4.212,
21.8,-1.512,
21.82,1.188,
21.84,3.888,
21.86,6.552,
21.88,9.216,
21.9,11.736,
21.92,14.292,
21.94,16.812,
21.96,19.224,
21.98,21.492,
22,23.724,
22.02,25.776,
22.04,27.72,
22.06,29.556,
22.08,31.248,
22.1,32.688,
22.12,34.056,
22.14,35.244,
22.16,36.252,
22.18,37.116,
22.2,37.8,
22.22,38.304,
22.24,38.628,
22.26,38.772,
22.28,38.736,
22.3,38.484,
22.32,38.088,
22.34,37.512,
22.36,36.72,
22.38,35.82,
22.4,34.74,
22.42,33.48,
22.44,32.04,
22.46,30.492,
22.48,28.764,
22.5,26.892,
22.52,24.912,
22.54,22.824,
22.56,20.592,
22.58,18.252,
22.6,15.84,
22.62,13.32,
22.64,10.8,
22.66,8.208,
22.68,5.616,
22.7,2.916,
22.72,0.288,
22.74,-2.376,
22.76,-4.968,
22.78,-7.596,
22.8,-10.152,
22.82,-12.744,
22.84,-15.192,
22.86,-17.568,
22.88,-19.872,
22.9,-21.996,
22.92,-24.12,
22.94,-26.1,
22.96,-27.936,
22.98,-29.7,
23,-31.248,
23.02,-32.688,
23.04,-33.984,
23.06,-35.136,
23.08,-36.072,
23.1,-36.864,
23.12,-37.476,
23.14,-37.908,
23.16,-38.16,
23.18,-38.268,
23.2,-38.16,
23.22,-37.908,
23.24,-37.476,
23.26,-36.864,
23.28,-36.072,
23.3,-35.1,
23.32,-33.984,
23.34,-32.688,
23.36,-31.248,
23.38,-29.628,
23.4,-27.9,
23.42,-26.064,
23.44,-24.048,
23.46,-21.924,
23.48,-19.728,
23.5,-17.46,
23.52,-15.156,
23.54,-12.744,
23.56,-10.152,
23.58,-7.632,
23.6,-5.04,
23.62,-2.448,
23.64,0.144,
23.66,2.772,
23.68,5.436,
23.7,7.992,
23.72,10.512,
23.74,12.996,
23.76,15.48,
23.78,17.784,
23.8,20.124,
23.82,22.248,
23.84,24.336,
23.86,26.28,
23.88,28.08,
23.9,29.772,
23.92,31.284,
23.94,32.652,
23.96,33.876,
23.98,34.92,
24,35.82,
24.02,36.54,
24.04,37.08,
24.06,37.44,
24.08,37.62,
24.1,37.656,
24.12,37.512,
24.14,37.152,
24.16,36.648,
24.18,35.964,
24.2,35.1,
24.22,34.092,
24.24,32.904,
24.26,31.608,
24.28,30.132,
24.3,28.512,
24.32,26.712,
24.34,24.804,
24.36,22.752,
24.38,20.664,
24.4,18.432,
24.42,16.092,
24.44,13.716,
24.46,11.232,
24.48,8.712,
24.5,6.156,
24.52,3.636,
24.54,1.08,
24.56,-1.548,
24.58,-4.104,
24.6,-6.66,
24.62,-9.18,
24.64,-11.664,
24.66,-14.076,
24.68,-16.452,
24.7,-18.72,
24.72,-20.844,
24.74,-22.896,
24.76,-24.84,
24.78,-26.676,
24.8,-28.368,
24.82,-29.988,
24.84,-31.392,
24.86,-32.76,
24.88,-33.876,
24.9,-34.848,
24.92,-35.64,
24.94,-36.288,
24.96,-36.756,
24.98,-37.044,
25,-37.188,
25.02,-37.152,
25.04,-36.936,
25.06,-36.54,
25.08,-35.964,
25.1,-35.244,
25.12,-34.344,
25.14,-33.3,
25.16,-32.076,
25.18,-30.672,
25.2,-29.16,
25.22,-27.504,
25.24,-25.74,
25.26,-23.832,
25.28,-21.816,
25.3,-19.692,
25.32,-17.496,
25.34,-15.264,
25.36,-12.888,
25.38,-10.404,
25.4,-7.956,
25.42,-5.472,
25.44,-2.916,
25.46,-0.396,
25.48,2.16,
25.5,4.716,
25.52,7.236,
25.54,9.72,
25.56,12.132,
25.58,14.508,
25.6,16.812,
25.62,19.044,
25.64,21.168,
25.66,23.22,
25.68,25.236,
25.7,26.928,
25.72,28.62,
25.74,30.132,
25.76,31.5,
25.78,32.688,
25.8,33.732,
25.82,34.632,
25.84,35.388,
25.86,35.928,
25.88,36.324,
25.9,36.576,
25.92,36.612,
25.94,36.468,
25.96,36.18,
25.98,35.712,
26,35.064,
26.02,34.272,
26.04,33.336,
26.06,32.184,
26.08,30.96,
26.1,29.52,
26.12,27.936,
26.14,26.244,
26.16,24.408,
26.18,22.464,
26.2,20.412,
26.22,18.216,
26.24,15.984,
26.26,13.68,
26.28,11.304,
26.3,8.856,
26.32,6.408,
26.34,3.888,
26.36,1.368,
26.38,-1.116,
26.4,-3.6,
26.42,-6.084,
26.44,-8.532,
26.46,-10.98,
26.48,-13.356,
26.5,-15.66,
26.52,-17.856,
26.54,-19.98,
26.56,-22.032,
26.58,-23.904,
26.6,-25.704,
26.62,-27.396,
26.64,-28.944,
26.66,-30.348,
26.68,-31.644,
26.7,-32.796,
26.72,-33.768,
26.74,-34.56,
26.76,-35.208,
26.78,-35.676,
26.8,-35.964,
26.82,-36.144,
26.84,-36.108,
26.86,-35.892,
26.88,-35.532,
26.9,-35.028,
26.92,-34.308,
26.94,-33.48,
26.96,-32.436,
26.98,-31.284,
27,-29.952,
27.02,-28.512,
27.04,-26.928,
27.06,-25.164,
27.08,-23.328,
27.1,-21.384,
27.12,-19.332,
27.14,-17.244,
27.16,-15.012,
27.18,-12.744,
27.2,-10.332,
27.22,-7.92,
27.24,-5.508,
27.26,-3.06,
27.28,-0.576,
27.3,1.872,
27.32,4.356,
27.34,6.84,
27.36,9.252,
27.38,11.592,
27.4,13.896,
27.42,16.2,
27.44,18.36,
27.46,20.448,
27.48,22.428,
27.5,24.3,
27.52,26.064,
27.54,27.684,
27.56,29.232,
27.58,30.528,
27.6,31.716,
27.62,32.76,
27.64,33.624,
27.66,34.344,
27.68,34.92,
27.7,35.28,
27.72,35.532,
27.74,35.568,
27.76,35.46,
27.78,35.172,
27.8,34.704,
27.82,34.092,
27.84,33.336,
27.86,32.4,
27.88,31.32,
27.9,30.096,
27.92,28.728,
27.94,27.18,
27.96,25.524,
27.98,23.724,
28,21.816,
28.02,19.872,
28.04,17.748,
28.06,15.516,
28.08,13.284,
28.1,10.944,
28.12,8.604,
28.14,6.228,
28.16,3.78,
28.18,1.332,
28.2,-1.08,
28.22,-3.528,
28.24,-5.94,
28.26,-8.316,
28.28,-10.656,
28.3,-13.032,
28.32,-15.228,
28.34,-17.388,
28.36,-19.476,
28.38,-21.42,
28.4,-23.256,
28.42,-24.984,
28.44,-26.64,
28.46,-28.152,
28.48,-29.52,
28.5,-30.744,
28.52,-31.86,
28.54,-32.796,
28.56,-33.588,
28.58,-34.2,
28.6,-34.668,
28.62,-34.956,
28.64,-35.1,
28.66,-35.064,
28.68,-34.884,
28.7,-34.524,
28.72,-33.984,
28.74,-33.336,
28.76,-32.472,
28.78,-31.5,
28.8,-30.348,
28.82,-29.052,
28.84,-27.612,
28.86,-26.064,
28.88,-24.408,
28.9,-22.608,
28.92,-20.7,
28.94,-18.684,
28.96,-16.632,
28.98,-14.436,
29,-12.24,
29.02,-9.936,
29.04,-7.596,
29.06,-5.22,
29.08,-2.808,
29.1,-0.432,
29.12,1.98,
29.14,4.392,
29.16,6.768,
29.18,9.144,
29.2,11.412,
29.22,13.644,
29.24,15.84,
29.26,17.964,
29.28,19.98,
29.3,21.924,
29.32,23.76,
29.34,25.416,
29.36,27.036,
29.38,28.476,
29.4,29.736,
29.42,30.888,
29.44,31.896,
29.46,32.724,
29.48,33.408,
29.5,33.948,
29.52,34.308,
29.54,34.488,
29.56,34.56,
29.58,34.416,
29.6,34.128,
29.62,33.66,
29.64,33.048,
29.66,32.292,
29.68,31.392,
29.7,30.276,
29.72,29.052,
29.74,27.684,
29.76,26.208,
29.78,24.588,
29.8,22.824,
29.82,20.952,
29.84,19.008,
29.86,16.956,
29.88,14.832,
29.9,12.636,
29.92,10.368,
29.94,8.064,
29.96,5.724,
29.98,3.312,
30,1.008,
30.02,-1.368,
30.04,-3.744,
30.06,-6.12,
30.08,-8.424,
30.1,-10.728,
30.12,-12.924,
30.14,-15.084,
30.16,-17.208,
30.18,-19.224,
30.2,-21.096,
30.22,-22.86,
30.24,-24.552,
30.26,-26.136,
30.28,-27.576,
30.3,-28.872,
30.32,-30.06,
30.34,-31.104,
30.36,-32.004,
30.38,-32.76,
30.4,-33.336,
30.42,-33.768,
30.44,-34.02,
30.46,-34.128,
30.48,-34.056,
30.5,-33.84,
30.52,-33.48,
30.54,-32.94,
30.56,-32.256,
30.58,-31.392,
30.6,-30.42,
30.62,-29.268,
30.64,-27.972,
30.66,-26.568,
30.68,-25.02,
30.7,-23.4,
30.72,-21.6,
30.74,-19.728,
30.76,-17.82,
30.78,-15.804,
30.8,-13.68,
30.82,-11.448,
30.84,-9.216,
30.86,-6.912,
30.88,-4.608,
30.9,-2.304,
30.92,0.036,
30.94,2.412,
30.96,4.752,
30.98,7.056,
31,9.288,
31.02,11.52,
31.04,13.716,
31.06,15.84,
31.08,17.856,
31.1,19.836,
31.12,21.672,
31.14,23.4,
31.16,25.02,
31.18,26.532,
31.2,27.936,
31.22,29.16,
31.24,30.276,
31.26,31.176,
31.28,31.968,
31.3,32.58,
31.32,33.048,
31.34,33.372,
31.36,33.552,
31.38,33.552,
31.4,33.372,
31.42,33.048,
31.44,32.58,
31.46,31.968,
31.48,31.176,
31.5,30.204,
31.52,29.16,
31.54,27.936,
31.56,26.532,
31.58,25.056,
31.6,23.4,
31.62,21.708,
31.64,19.872,
31.66,17.964,
31.68,15.948,
31.7,13.824,
31.72,11.7,
31.74,9.432,
31.76,7.236,
31.78,4.968,
31.8,2.628,
31.82,0.36,
31.84,-1.98,
31.86,-4.248,
31.88,-6.516,
31.9,-8.784,
31.92,-10.98,
31.94,-13.176,
31.96,-15.228,
31.98,-17.28,
32,-19.26,
32.02,-20.988,
32.04,-22.716,
32.06,-24.3,
32.08,-25.776,
32.1,-27.18,
32.12,-28.404,
32.14,-29.52,
32.16,-30.492,
32.18,-31.32,
32.2,-32.004,
32.22,-32.508,
32.24,-32.868,
32.26,-33.084,
32.28,-33.156,
32.3,-33.048,
32.32,-32.796,
32.34,-32.364,
32.36,-31.824,
32.38,-31.104,
32.4,-30.24,
32.42,-29.196,
32.44,-28.044,
32.46,-26.784,
32.48,-25.344,
32.5,-23.832,
32.52,-22.176,
32.54,-20.412,
32.56,-18.576,
32.58,-16.704,
32.6,-14.652,
32.62,-12.6,
32.64,-10.44,
32.66,-8.208,
32.68,-6.012,
32.7,-3.744,
32.72,-1.512,
32.74,0.828,
32.76,3.06,
32.78,5.328,
32.8,7.56,
32.82,9.756,
32.84,11.916,
32.86,14.004,
32.88,16.02,
32.9,18,
32.92,19.872,
32.94,21.636,
32.96,23.292,
32.98,24.84,
33,26.244,
33.02,27.54,
33.04,28.692,
33.06,29.736,
33.08,30.564,
33.1,31.284,
33.12,31.824,
33.14,32.256,
33.16,32.508,
33.18,32.616,
33.2,32.544,
33.22,32.328,
33.24,31.968,
33.26,31.464,
33.28,30.78,
33.3,29.952,
33.32,28.98,
33.34,27.864,
33.36,26.64,
33.38,25.272,
33.4,23.76,
33.42,22.14,
33.44,20.412,
33.46,18.612,
33.48,16.704,
33.5,14.724,
33.52,12.672,
33.54,10.548,
33.56,8.352,
33.58,6.192,
33.6,3.924,
33.62,1.692,
33.64,-0.54,
33.66,-2.772,
33.68,-5.004,
33.7,-7.2,
33.72,-9.396,
33.74,-11.52,
33.76,-13.572,
33.78,-15.588,
33.8,-17.532,
33.82,-19.368,
33.84,-21.096,
33.86,-22.716,
33.88,-24.192,
33.9,-25.596,
33.92,-26.892,
33.94,-28.044,
33.96,-29.088,
33.98,-29.952,
34,-30.708,
34.02,-31.284,
34.04,-31.752,
34.06,-32.04,
34.08,-32.184,
34.1,-32.184,
34.12,-32.004,
34.14,-31.68,
34.16,-31.248,
34.18,-30.6,
34.2,-29.844,
34.22,-28.944,
34.24,-27.9,
34.26,-26.748,
34.28,-25.452,
34.3,-24.012,
34.32,-22.464,
34.34,-20.808,
34.36,-19.08,
34.38,-17.28,
34.4,-15.408,
34.42,-13.392,
34.44,-11.34,
34.46,-9.18,
34.48,-7.092,
34.5,-4.896,
34.52,-2.7,
34.54,-0.468,
34.56,1.764,
34.58,3.96,
34.6,6.156,
34.62,8.28,
34.64,10.404,
34.66,12.492,
34.68,14.508,
34.7,16.452,
34.72,18.288,
34.74,20.088,
34.76,21.744,
34.78,23.292,
34.8,24.768,
34.82,26.064,
34.84,27.288,
34.86,28.332,
34.88,29.268,
34.9,30.024,
34.92,30.672,
34.94,31.14,
34.96,31.464,
34.98,31.644,
35,31.68,
35.02,31.572,
35.04,31.284,
35.06,30.852,
35.08,30.276,
35.1,29.556,
35.12,28.692,
35.14,27.648,
35.16,26.496,
35.18,25.236,
35.2,23.832,
35.22,22.32,
35.24,20.7,
35.26,19.008,
35.28,17.172,
35.3,15.264,
35.32,13.284,
35.34,11.232,
35.36,9.18,
35.38,7.056,
35.4,4.932,
35.42,2.7,
35.44,0.54,
35.46,-1.62,
35.48,-3.816,
35.5,-5.94,
35.52,-8.064,
35.54,-10.152,
35.56,-12.204,
35.58,-14.184,
35.6,-16.092,
35.62,-17.928,
35.64,-19.656,
35.66,-21.276,
35.68,-22.824,
35.7,-24.228,
35.72,-25.524,
35.74,-26.748,
35.76,-27.792,
35.78,-28.692,
35.8,-29.484,
35.82,-30.132,
35.84,-30.636,
35.86,-30.996,
35.88,-31.212,
35.9,-31.248,
35.92,-31.176,
35.94,-30.96,
35.96,-30.528,
35.98,-30.024,
36,-29.34,
36.02,-28.548,
36.04,-27.576,
36.06,-26.496,
36.08,-25.308,
36.1,-23.976,
36.12,-22.536,
36.14,-20.988,
36.16,-19.404,
36.18,-17.604,
36.2,-15.804,
36.22,-13.896,
36.24,-11.916,
36.26,-9.864,
36.28,-7.776,
36.3,-5.688,
36.32,-3.528,
36.34,-1.404,
36.36,0.792,
36.38,2.88,
36.4,5.004,
36.42,7.128,
36.44,9.216,
36.46,11.268,
36.48,13.212,
36.5,15.12,
36.52,16.956,
36.54,18.756,
36.56,20.448,
36.58,21.96,
36.6,23.436,
36.62,24.768,
36.64,25.992,
36.66,27.072,
36.68,28.044,
36.7,28.872,
36.72,29.556,
36.74,30.06,
36.76,30.456,
36.78,30.672,
36.8,30.78,
36.82,30.708,
36.84,30.492,
36.86,30.168,
36.88,29.664,
36.9,29.016,
36.92,28.224,
36.94,27.288,
36.96,26.208,
36.98,25.02,
37,23.688,
37.02,22.284,
37.04,20.736,
37.06,19.116,
37.08,17.388,
37.1,15.552,
37.12,13.68,
37.14,11.736,
37.16,9.684,
37.18,7.668,
37.2,5.616,
37.22,3.456,
37.24,1.368,
37.26,-0.72,
37.28,-2.88,
37.3,-4.968,
37.32,-7.056,
37.34,-9,
37.36,-11.088,
37.38,-13.032,
37.4,-14.904,
37.42,-16.776,
37.44,-18.504,
37.46,-20.124,
37.48,-21.636,
37.5,-23.04,
37.52,-24.336,
37.54,-25.524,
37.56,-26.604,
37.58,-27.576,
37.6,-28.368,
37.62,-29.052,
37.64,-29.592,
37.66,-29.988,
37.68,-30.24,
37.7,-30.348,
37.72,-30.348,
37.74,-30.168,
37.76,-29.844,
37.78,-29.376,
37.8,-28.8,
37.82,-28.008,
37.84,-27.144,
37.86,-26.136,
37.88,-25.02,
37.9,-23.76,
37.92,-22.356,
37.94,-20.88,
37.96,-19.332,
37.98,-17.676,
38,-15.984,
38.02,-14.148,
38.04,-12.24,
38.06,-10.26,
38.08,-8.244,
38.1,-6.228,
38.12,-4.14,
38.14,-2.088,
38.16,-0.072,
38.18,2.124,
38.2,4.176,
38.22,6.264,
38.24,8.208,
38.26,10.26,
38.28,12.204,
38.3,14.112,
38.32,15.912,
38.34,17.676,
38.36,19.332,
38.38,20.88,
38.4,22.32,
38.42,23.688,
38.44,24.876,
38.46,25.992,
38.48,26.964,
38.5,27.792,
38.52,28.476,
38.54,29.052,
38.56,29.484,
38.58,29.736,
38.6,29.88,
38.62,29.88,
38.64,29.7,
38.66,29.412,
38.68,28.98,
38.7,28.368,
38.72,27.648,
38.74,26.784,
38.76,25.776,
38.78,24.66,
38.8,23.4,
38.82,22.032,
38.84,20.592,
38.86,19.044,
38.88,17.388,
38.9,15.624,
38.92,13.896,
38.94,11.952,
38.96,10.008,
38.98,7.992,
39,6.048,
39.02,3.96,
39.04,2.016,
39.06,-0.144,
39.08,-2.232,
39.1,-4.14,
39.12,-6.3,
39.14,-8.28,
39.16,-10.224,
39.18,-12.06,
39.2,-13.968,
39.22,-15.696,
39.24,-17.532,
39.26,-19.116,
39.28,-20.592,
39.3,-21.96,
39.32,-23.328,
39.34,-24.444,
39.36,-25.524,
39.38,-26.532,
39.4,-27.324,
39.42,-28.044,
39.44,-28.584,
39.46,-29.016,
39.48,-29.304,
39.5,-29.448,
39.52,-29.448,
39.54,-29.34,
39.56,-29.052,
39.58,-28.62,
39.6,-28.08,
39.62,-27.396,
39.64,-26.568,
39.66,-25.668,
39.68,-24.552,
39.7,-23.436,
39.72,-22.104,
39.74,-20.664,
39.76,-19.152,
39.78,-17.568,
39.8,-15.948,
39.82,-14.256,
39.84,-12.348,
39.86,-10.476,
39.88,-8.496,
39.9,-6.624,
39.92,-4.608,
39.94,-2.52,
39.96,-0.576,
39.98,1.476,
40,3.564,
40.02,5.58,
40.04,7.488,
40.06,9.504,
40.08,11.304,
40.1,13.176,
40.12,15.048,
40.14,16.632,
40.16,18.288,
40.18,19.836,
40.2,21.276,
40.22,22.608,
40.24,23.868,
40.26,24.948,
40.28,25.92,
40.3,26.748,
40.32,27.468,
40.34,28.08,
40.36,28.512,
40.38,28.836,
40.4,28.98,
40.42,29.016,
40.44,28.872,
40.46,28.62,
40.48,28.224,
40.5,27.648,
40.52,26.964,
40.54,26.208,
40.56,25.272,
40.58,24.192,
40.6,23.004,
40.62,21.672,
40.64,20.268,
40.66,18.864,
40.68,17.28,
40.7,15.588,
40.72,13.824,
40.74,12.024,
40.76,10.08,
40.78,8.28,
40.8,6.336,
40.82,4.32,
40.84,2.304,
40.86,0.36,
40.88,-1.728,
40.9,-3.636,
40.92,-5.652,
40.94,-7.56,
40.96,-9.468,
40.98,-11.34,
41,-13.248,
41.02,-14.904,
41.04,-16.632,
41.06,-18.216,
41.08,-19.692,
41.1,-21.096,
41.12,-22.356,
41.14,-23.508,
41.16,-24.624,
41.18,-25.56,
41.2,-26.388,
41.22,-27.108,
41.24,-27.684,
41.26,-28.116,
41.28,-28.404,
41.3,-28.584,
41.32,-28.62,
41.34,-28.512,
41.36,-28.296,
41.38,-27.9,
41.4,-27.396,
41.42,-26.748,
41.44,-25.992,
41.46,-25.092,
41.48,-24.084,
41.5,-22.932,
41.52,-21.672,
41.54,-20.34,
41.56,-18.936,
41.58,-17.424,
41.6,-15.804,
41.62,-14.112,
41.64,-12.348,
41.66,-10.512,
41.68,-8.64,
41.7,-6.768,
41.72,-4.788,
41.74,-2.808,
41.76,-0.864,
41.78,1.116,
41.8,3.06,
41.82,5.04,
41.84,6.984,
41.86,8.856,
41.88,10.692,
41.9,12.492,
41.92,14.256,
41.94,15.912,
41.96,17.568,
41.98,19.044,
42,20.448,
42.02,21.78,
42.04,22.932,
42.06,24.012,
42.08,24.984,
42.1,25.848,
42.12,26.568,
42.14,27.144,
42.16,27.576,
42.18,27.9,
42.2,28.08,
42.22,28.116,
42.24,28.008,
42.26,27.792,
42.28,27.396,
42.3,26.892,
42.32,26.28,
42.34,25.488,
42.36,24.588,
42.38,23.58,
42.4,22.464,
42.42,21.204,
42.44,19.908,
42.46,18.432,
42.48,16.92,
42.5,15.3,
42.52,13.608,
42.54,11.88,
42.56,10.08,
42.58,8.208,
42.6,6.336,
42.62,4.392,
42.64,2.448,
42.66,0.54,
42.68,-1.404,
42.7,-3.312,
42.72,-5.256,
42.74,-7.164,
42.76,-9,
42.78,-10.872,
42.8,-12.6,
42.82,-14.328,
42.84,-15.948,
42.86,-17.532,
42.88,-18.972,
42.9,-20.376,
42.92,-21.6,
42.94,-22.752,
42.96,-23.832,
42.98,-24.732,
43,-25.56,
43.02,-26.244,
43.04,-26.82,
43.06,-27.252,
43.08,-27.576,
43.1,-27.72,
43.12,-27.792,
43.14,-27.684,
43.16,-27.468,
43.18,-27.108,
43.2,-26.64,
43.22,-26.028,
43.24,-25.272,
43.26,-24.408,
43.28,-23.436,
43.3,-22.32,
43.32,-21.132,
43.34,-19.836,
43.36,-18.468,
43.38,-16.992,
43.4,-15.408,
43.42,-13.788,
43.44,-12.096,
43.46,-10.296,
43.48,-8.46,
43.5,-6.66,
43.52,-4.752,
43.54,-2.844,
43.56,-0.936,
43.58,0.972,
43.6,2.88,
43.62,4.788,
43.64,6.66,
43.66,8.532,
43.68,10.296,
43.7,12.024,
43.72,13.716,
43.74,15.336,
43.76,16.884,
43.78,18.396,
43.8,19.764,
43.82,21.024,
43.84,22.212,
43.86,23.256,
43.88,24.192,
43.9,25.02,
43.92,25.704,
43.94,26.28,
43.96,26.748,
43.98,27.036,
44,27.216,
44.02,27.252,
44.04,27.18,
44.06,26.928,
44.08,26.568,
44.1,26.1,
44.12,25.488,
44.14,24.732,
44.16,23.868,
44.18,22.896,
44.2,21.78,
44.22,20.592,
44.24,19.296,
44.26,17.928,
44.28,16.452,
44.3,14.868,
44.32,13.248,
44.34,11.52,
44.36,9.792,
44.38,7.992,
44.4,6.156,
44.42,4.284,
44.44,2.448,
44.46,0.54,
44.48,-1.368,
44.5,-3.204,
44.52,-5.076,
44.54,-6.984,
44.56,-8.712,
44.58,-10.512,
44.6,-12.24,
44.62,-13.896,
44.64,-15.48,
44.66,-16.992,
44.68,-18.396,
44.7,-19.728,
44.72,-20.952,
44.74,-22.068,
44.76,-23.112,
44.78,-24.012,
44.8,-24.804,
44.82,-25.488,
44.84,-26.028,
44.86,-26.46,
44.88,-26.748,
44.9,-26.928,
44.92,-26.964,
44.94,-26.856,
44.96,-26.64,
44.98,-26.28,
45,-25.848,
45.02,-25.236,
45.04,-24.516,
45.06,-23.688,
45.08,-22.716,
45.1,-21.672,
45.12,-20.484,
45.14,-19.26,
45.16,-17.892,
45.18,-16.452,
45.2,-14.94,
45.22,-13.32,
45.24,-11.664,
45.26,-9.936,
45.28,-8.172,
45.3,-6.408,
45.32,-4.572,
45.34,-2.7,
45.36,-0.864,
45.38,1.008,
45.4,2.844,
45.42,4.716,
45.44,6.516,
45.46,8.316,
45.48,10.044,
45.5,11.736,
45.52,13.392,
45.54,14.976,
45.56,16.452,
45.58,17.892,
45.6,19.224,
45.62,20.448,
45.64,21.564,
45.66,22.608,
45.68,23.508,
45.7,24.3,
45.72,24.984,
45.74,25.488,
45.76,25.92,
45.78,26.208,
45.8,26.388,
45.82,26.424,
45.84,26.352,
45.86,26.1,
45.88,25.74,
45.9,25.272,
45.92,24.66,
45.94,23.94,
45.96,23.076,
45.98,22.14,
46,21.096,
46.02,19.908,
46.04,18.612,
46.06,17.244,
46.08,15.804,
46.1,14.292,
46.12,12.708,
46.14,11.052,
46.16,9.36,
46.18,7.632,
46.2,5.832,
46.22,4.032,
46.24,2.232,
46.26,0.396,
46.28,-1.44,
46.3,-3.24,
46.32,-5.076,
46.34,-6.876,
46.36,-8.604,
46.38,-10.296,
46.4,-11.988,
46.42,-13.608,
46.44,-15.12,
46.46,-16.596,
46.48,-17.964,
46.5,-19.26,
46.52,-20.448,
46.54,-21.528,
46.56,-22.5,
46.58,-23.4,
46.6,-24.12,
46.62,-24.768,
46.64,-25.308,
46.66,-25.704,
46.68,-25.992,
46.7,-26.136,
46.72,-26.136,
46.74,-26.064,
46.76,-25.848,
46.78,-25.488,
46.8,-25.02,
46.82,-24.408,
46.84,-23.688,
46.86,-22.896,
46.88,-21.96,
46.9,-20.88,
46.92,-19.764,
46.94,-18.54,
46.96,-17.208,
46.98,-15.804,
47,-14.328,
47.02,-12.78,
47.04,-11.124,
47.06,-9.432,
47.08,-7.74,
47.1,-6.012,
47.12,-4.248,
47.14,-2.448,
47.16,-0.648,
47.18,1.152,
47.2,2.952,
47.22,4.788,
47.24,6.516,
47.26,8.244,
47.28,9.936,
47.3,11.556,
47.32,13.176,
47.34,14.688,
47.36,16.092,
47.38,17.496,
47.4,18.792,
47.42,19.944,
47.44,21.06,
47.46,22.032,
47.48,22.896,
47.5,23.652,
47.52,24.264,
47.54,24.768,
47.56,25.2,
47.58,25.452,
47.6,25.56,
47.62,25.596,
47.64,25.488,
47.66,25.236,
47.68,24.912,
47.7,24.408,
47.72,23.796,
47.74,23.076,
47.76,22.248,
47.78,21.276,
47.8,20.232,
47.82,19.08,
47.84,17.856,
47.86,16.524,
47.88,15.12,
47.9,13.608,
47.92,12.096,
47.94,10.512,
47.96,8.82,
47.98,7.128,
48,5.4,
48.02,3.636,
48.04,1.908,
48.06,0.108,
48.08,-1.692,
48.1,-3.42,
48.12,-5.184,
48.14,-6.948,
48.16,-8.604,
48.18,-10.26,
48.2,-11.88,
48.22,-13.428,
48.24,-14.904,
48.26,-16.308,
48.28,-17.64,
48.3,-18.864,
48.32,-19.98,
48.34,-21.024,
48.36,-21.96,
48.38,-22.788,
48.4,-23.508,
48.42,-24.12,
48.44,-24.588,
48.46,-24.948,
48.48,-25.2,
48.5,-25.344,
48.52,-25.344,
48.54,-25.236,
48.56,-24.984,
48.58,-24.624,
48.6,-24.156,
48.62,-23.58,
48.64,-22.86,
48.66,-22.032,
48.68,-21.096,
48.7,-20.088,
48.72,-18.972,
48.74,-17.784,
48.76,-16.488,
48.78,-15.084,
48.8,-13.644,
48.82,-12.096,
48.84,-10.512,
48.86,-8.892,
48.88,-7.2,
48.9,-5.508,
48.92,-3.816,
48.94,-2.052,
48.96,-0.288,
48.98,1.44,
49,3.204,
49.02,4.932,
49.04,6.624,
49.06,8.28,
49.08,9.9,
49.1,11.484,
49.12,12.996,
49.14,14.436,
49.16,15.84,
49.18,17.136,
49.2,18.432,
49.22,19.512,
49.24,20.556,
49.26,21.492,
49.28,22.284,
49.3,23.004,
49.32,23.58,
49.34,24.048,
49.36,24.408,
49.38,24.66,
49.4,24.768,
49.42,24.768,
49.44,24.624,
49.46,24.372,
49.48,24.012,
49.5,23.508,
49.52,22.896,
49.54,22.176,
49.56,21.348,
49.58,20.412,
49.6,19.368,
49.62,18.252,
49.64,16.992,
49.66,15.696,
49.68,14.328,
49.7,12.888,
49.72,11.34,
49.74,9.828,
49.76,8.208,
49.78,6.552,
49.8,4.824,
49.82,3.168,
49.84,1.44,
49.86,-0.252,
49.88,-1.98,
49.9,-3.672,
49.92,-5.4,
49.94,-7.056,
49.96,-8.676,
49.98,-10.296,
50,-11.844,
50.02,-13.32,
50.04,-14.724,
50.06,-16.056,
50.08,-17.316,
50.1,-18.504,
50.12,-19.584,
50.14,-20.592,
50.16,-21.528,
50.18,-22.284,
50.2,-22.968,
50.22,-23.544,
50.24,-23.976,
50.26,-24.3,
50.28,-24.516,
50.3,-24.588,
50.32,-24.552,
50.34,-24.408,
50.36,-24.12,
50.38,-23.76,
50.4,-23.256,
50.42,-22.644,
50.44,-21.96,
50.46,-21.168,
50.48,-20.304,
50.5,-19.296,
50.52,-18.18,
50.54,-16.956,
50.56,-15.696,
50.58,-14.328,
50.6,-12.888,
50.62,-11.376,
50.64,-9.792,
50.66,-8.208,
50.68,-6.588,
50.7,-4.932,
50.72,-3.276,
50.74,-1.584,
50.76,0.144,
50.78,1.836,
50.8,3.492,
50.82,5.184,
50.84,6.84,
50.86,8.424,
50.88,9.972,
50.9,11.484,
50.92,12.96,
50.94,14.328,
50.96,15.66,
50.98,16.884,
51,18.072,
51.02,19.152,
51.04,20.124,
51.06,20.988,
51.08,21.744,
51.1,22.428,
51.12,22.968,
51.14,23.4,
51.16,23.688,
51.18,23.904,
51.2,23.976,
51.22,23.94,
51.24,23.796,
51.26,23.508,
51.28,23.112,
51.3,22.608,
51.32,21.96,
51.34,21.24,
51.36,20.412,
51.38,19.476,
51.4,18.468,
51.42,17.316,
51.44,16.128,
51.46,14.832,
51.48,13.5,
51.5,12.096,
51.52,10.584,
51.54,9.072,
51.56,7.524,
51.58,5.904,
51.6,4.284,
51.62,2.628,
51.64,0.936,
51.66,-0.72,
51.68,-2.376,
51.7,-4.032,
51.72,-5.688,
51.74,-7.272,
51.76,-8.856,
51.78,-10.404,
51.8,-11.88,
51.82,-13.32,
51.84,-14.652,
51.86,-15.912,
51.88,-17.172,
51.9,-18.252,
51.92,-19.296,
51.94,-20.232,
51.96,-21.06,
51.98,-21.744,
52,-22.356,
52.02,-22.896,
52.04,-23.256,
52.06,-23.544,
52.08,-23.724,
52.1,-23.76,
52.12,-23.724,
52.14,-23.58,
52.16,-23.292,
52.18,-22.896,
52.2,-22.392,
52.22,-21.78,
52.24,-21.06,
52.26,-20.232,
52.28,-19.332,
52.3,-18.324,
52.32,-17.244,
52.34,-16.02,
52.36,-14.76,
52.38,-13.428,
52.4,-12.024,
52.42,-10.548,
52.44,-9.036,
52.46,-7.488,
52.48,-5.94,
52.5,-4.32,
52.52,-2.664,
52.54,-1.008,
52.56,0.612,
52.58,2.268,
52.6,3.888,
52.62,5.472,
52.64,7.092,
52.66,8.64,
52.68,10.08,
52.7,11.556,
52.72,12.96,
52.74,14.256,
52.76,15.516,
52.78,16.704,
52.8,17.82,
52.82,18.828,
52.84,19.728,
52.86,20.556,
52.88,21.276,
52.9,21.852,
52.92,22.356,
52.94,22.752,
52.96,23.004,
52.98,23.148,
53,23.184,
53.02,23.112,
53.04,22.932,
53.06,22.608,
53.08,22.212,
53.1,21.672,
53.12,21.06,
53.14,20.304,
53.16,19.476,
53.18,18.54,
53.2,17.496,
53.22,16.38,
53.24,15.192,
53.26,13.932,
53.28,12.564,
53.3,11.196,
53.32,9.72,
53.34,8.244,
53.36,6.732,
53.38,5.184,
53.4,3.564,
53.42,1.98,
53.44,0.324,
53.46,-1.26,
53.48,-2.88,
53.5,-4.464,
53.52,-6.048,
53.54,-7.596,
53.56,-9.108,
53.58,-10.584,
53.6,-11.952,
53.62,-13.32,
53.64,-14.652,
53.66,-15.84,
53.68,-16.992,
53.7,-18.072,
53.72,-19.008,
53.74,-19.872,
53.76,-20.628,
53.78,-21.312,
53.8,-21.852,
53.82,-22.32,
53.84,-22.644,
53.86,-22.896,
53.88,-23.04,
53.9,-23.04,
53.92,-22.968,
53.94,-22.752,
53.96,-22.428,
53.98,-22.032,
54,-21.492,
54.02,-20.844,
54.04,-20.124,
54.06,-19.296,
54.08,-18.36,
54.1,-17.388,
54.12,-16.272,
54.14,-15.084,
54.16,-13.824,
54.18,-12.528,
54.2,-11.124,
54.22,-9.648,
54.24,-8.208,
54.26,-6.696,
54.28,-5.148,
54.3,-3.564,
54.32,-1.98,
54.34,-0.432,
54.36,1.152,
54.38,2.736,
54.4,4.32,
54.42,5.904,
54.44,7.416,
54.46,8.856,
54.48,10.296,
54.5,11.664,
54.52,12.996,
54.54,14.256,
54.56,15.444,
54.58,16.56,
54.6,17.604,
54.62,18.54,
54.64,19.404,
54.66,20.16,
54.68,20.808,
54.7,21.348,
54.72,21.78,
54.74,22.104,
54.76,22.32,
54.78,22.392,
54.8,22.428,
54.82,22.32,
54.84,22.068,
54.86,21.744,
54.88,21.276,
54.9,20.736,
54.92,20.088,
54.94,19.332,
54.96,18.468,
54.98,17.532,
55,16.488,
55.02,15.372,
55.04,14.22,
55.06,12.96,
55.08,11.628,
55.1,10.296,
55.12,8.856,
55.14,7.38,
55.16,5.904,
55.18,4.392,
55.2,2.808,
55.22,1.296,
55.24,-0.288,
55.26,-1.836,
55.28,-3.384,
55.3,-4.968,
55.32,-6.48,
55.34,-7.92,
55.36,-9.36,
55.38,-10.8,
55.4,-12.132,
55.42,-13.428,
55.44,-14.652,
55.46,-15.768,
55.48,-16.848,
55.5,-17.856,
55.52,-18.72,
55.54,-19.548,
55.56,-20.268,
55.58,-20.844,
55.6,-21.348,
55.62,-21.744,
55.64,-22.032,
55.66,-22.248,
55.68,-22.32,
55.7,-22.284,
55.72,-22.176,
55.74,-21.924,
55.76,-21.564,
55.78,-21.132,
55.8,-20.556,
55.82,-19.908,
55.84,-19.152,
55.86,-18.324,
55.88,-17.352,
55.9,-16.344,
55.92,-15.264,
55.94,-14.076,
55.96,-12.888,
55.98,-11.52,
56,-10.152,
56.02,-8.748,
56.04,-7.308,
56.06,-5.832,
56.08,-4.32,
56.1,-2.808,
56.12,-1.296,
56.14,0.252,
56.16,1.8,
56.18,3.348,
56.2,4.824,
56.22,6.336,
56.24,7.776,
56.26,9.18,
56.28,10.548,
56.3,11.88,
56.32,13.104,
56.34,14.292,
56.36,15.408,
56.38,16.452,
56.4,17.424,
56.42,18.288,
56.44,19.08,
56.46,19.764,
56.48,20.34,
56.5,20.808,
56.52,21.204,
56.54,21.456,
56.56,21.6,
56.58,21.672,
56.6,21.636,
56.62,21.456,
56.64,21.204,
56.66,20.808,
56.68,20.34,
56.7,19.764,
56.72,19.08,
56.74,18.324,
56.76,17.424,
56.78,16.488,
56.8,15.444,
56.82,14.364,
56.84,13.176,
56.86,11.952,
56.88,10.656,
56.9,9.288,
56.92,7.92,
56.94,6.48,
56.96,5.04,
56.98,3.528,
57,2.052,
57.02,0.54,
57.04,-0.972,
57.06,-2.484,
57.08,-3.96,
57.1,-5.472,
57.12,-6.912,
57.14,-8.316,
57.16,-9.72,
57.18,-11.052,
57.2,-12.312,
57.22,-13.536,
57.24,-14.688,
57.26,-15.768,
57.28,-16.776,
57.3,-17.676,
57.32,-18.504,
57.34,-19.224,
57.36,-19.872,
57.38,-20.412,
57.4,-20.844,
57.42,-21.168,
57.44,-21.42,
57.46,-21.564,
57.48,-21.564,
57.5,-21.492,
57.52,-21.312,
57.54,-21.024,
57.56,-20.664,
57.58,-20.16,
57.6,-19.584,
57.62,-18.9,
57.64,-18.108,
57.66,-17.244,
57.68,-16.308,
57.7,-15.3,
57.72,-14.22,
57.74,-13.032,
57.76,-11.808,
57.78,-10.476,
57.8,-9.144,
57.82,-7.776,
57.84,-6.372,
57.86,-4.968,
57.88,-3.456,
57.9,-1.98,
57.92,-0.504,
57.94,0.972,
57.96,2.484,
57.98,3.924,
58,5.364,
58.02,6.84,
58.04,8.172,
58.06,9.54,
58.08,10.8,
58.1,12.024,
58.12,13.248,
58.14,14.364,
58.16,15.372,
58.18,16.344,
58.2,17.244,
58.22,18.036,
58.24,18.72,
58.26,19.368,
58.28,19.872,
58.3,20.268,
58.32,20.592,
58.34,20.772,
58.36,20.88,
58.38,20.916,
58.4,20.808,
58.42,20.592,
58.44,20.268,
58.46,19.872,
58.48,19.332,
58.5,18.756,
58.52,18.036,
58.54,17.244,
58.56,16.344,
58.58,15.408,
58.6,14.4,
58.62,13.284,
58.64,12.132,
58.66,10.908,
58.68,9.612,
58.7,8.316,
58.72,6.948,
58.74,5.544,
58.76,4.104,
58.78,2.664,
58.8,1.224,
58.82,-0.252,
58.84,-1.692,
58.86,-3.132,
58.88,-4.572,
58.9,-6.012,
58.92,-7.38,
58.94,-8.748,
58.96,-10.044,
58.98,-11.304,
59,-12.528,
59.02,-13.644,
59.04,-14.724,
59.06,-15.732,
59.08,-16.632,
59.1,-17.46,
59.12,-18.252,
59.14,-18.9,
59.16,-19.44,
59.18,-19.944,
59.2,-20.304,
59.22,-20.592,
59.24,-20.736,
59.26,-20.808,
59.28,-20.808,
59.3,-20.7,
59.32,-20.448,
59.34,-20.124,
59.36,-19.728,
59.38,-19.188,
59.4,-18.576,
59.42,-17.856,
59.44,-17.064,
59.46,-16.2,
59.48,-15.264,
59.5,-14.22,
59.52,-13.104,
59.54,-11.952,
59.56,-10.728,
59.58,-9.468,
59.6,-8.136,
59.62,-6.804,
59.64,-5.436,
59.66,-3.996,
59.68,-2.556,
59.7,-1.152,
59.72,0.288,
59.74,1.728,
59.76,3.132,
59.78,4.536,
59.8,5.94,
59.82,7.308,
59.84,8.604,
59.86,9.864,
59.88,11.088,
59.9,12.24,
59.92,13.356,
59.94,14.4,
59.96,15.336,
59.98,16.236,
60,17.028,
60.02,17.784,
60.04,18.432,
60.06,18.936,
60.08,19.368,
60.1,19.728,
60.12,19.98,
60.14,20.124,
60.16,20.16,
60.18,20.124,
60.2,19.944,
60.22,19.692,
60.24,19.332,
60.26,18.9,
60.28,18.324,
60.3,17.712,
60.32,16.956,
60.34,16.164,
60.36,15.264,
60.38,14.328,
60.4,13.284,
60.42,12.204,
60.44,11.016,
60.46,9.828,
60.48,8.568,
60.5,7.272,
60.52,5.94,
60.54,4.572,
60.56,3.168,
60.58,1.8,
60.6,0.36,
60.62,-1.044,
60.64,-2.448,
60.66,-3.816,
60.68,-5.22,
60.7,-6.552,
60.72,-7.884,
60.74,-9.18,
60.76,-10.404,
60.78,-11.592,
60.8,-12.708,
60.82,-13.788,
60.84,-14.76,
60.86,-15.696,
60.88,-16.524,
60.9,-17.28,
60.92,-18,
60.94,-18.576,
60.96,-19.044,
60.98,-19.476,
61,-19.764,
61.02,-19.98,
61.04,-20.088,
61.06,-20.088,
61.08,-20.016,
61.1,-19.872,
61.12,-19.584,
61.14,-19.188,
61.16,-18.72,
61.18,-18.18,
61.2,-17.532,
61.22,-16.812,
61.24,-15.984,
61.26,-15.084,
61.28,-14.112,
61.3,-13.104,
61.32,-11.988,
61.34,-10.836,
61.36,-9.648,
61.38,-8.352,
61.4,-7.092,
61.42,-5.76,
61.44,-4.392,
61.46,-3.024,
61.48,-1.656,
61.5,-0.288,
61.52,1.116,
61.54,2.484,
61.56,3.78,
61.58,5.22,
61.6,6.516,
61.62,7.812,
61.64,9.036,
61.66,10.188,
61.68,11.376,
61.7,12.456,
61.72,13.464,
61.74,14.436,
61.76,15.336,
61.78,16.092,
61.8,16.812,
61.82,17.496,
61.84,18.072,
61.86,18.504,
61.88,18.9,
61.9,19.152,
61.92,19.332,
61.94,19.404,
61.96,19.404,
61.98,19.296,
62,19.08,
62.02,18.756,
62.04,18.36,
62.06,17.892,
62.08,17.28,
62.1,16.632,
62.12,15.876,
62.14,15.084,
62.16,14.148,
62.18,13.176,
62.2,12.132,
62.22,11.052,
62.24,9.9,
62.26,8.748,
62.28,7.488,
62.3,6.192,
62.32,4.968,
62.34,3.564,
62.36,2.232,
62.38,0.936,
62.4,-0.504,
62.42,-1.836,
62.44,-3.204,
62.46,-4.536,
62.48,-5.832,
62.5,-7.128,
62.52,-8.388,
62.54,-9.54,
62.56,-10.692,
62.58,-11.88,
62.6,-12.924,
62.62,-13.86,
62.64,-14.832,
62.66,-15.66,
62.68,-16.38,
62.7,-17.1,
62.72,-17.712,
62.74,-18.216,
62.76,-18.612,
62.78,-18.972,
62.8,-19.188,
62.82,-19.332,
62.84,-19.368,
62.86,-19.332,
62.88,-19.224,
62.9,-18.972,
62.92,-18.648,
62.94,-18.252,
62.96,-17.712,
62.98,-17.136,
63,-16.416,
63.02,-15.696,
63.04,-14.832,
63.06,-14.004,
63.08,-12.96,
63.1,-11.952,
63.12,-10.908,
63.14,-9.72,
63.16,-8.532,
63.18,-7.308,
63.2,-6.012,
63.22,-4.716,
63.24,-3.456,
63.26,-2.052,
63.28,-0.792,
63.3,0.54,
63.32,1.872,
63.34,3.24,
63.36,4.536,
63.38,5.796,
63.4,7.056,
63.42,8.244,
63.44,9.432,
63.46,10.584,
63.48,11.664,
63.5,12.6,
63.52,13.572,
63.54,14.436,
63.56,15.228,
63.58,15.984,
63.6,16.632,
63.62,17.208,
63.64,17.676,
63.66,18.036,
63.68,18.36,
63.7,18.576,
63.72,18.648,
63.74,18.684,
63.76,18.612,
63.78,18.432,
63.8,18.18,
63.82,17.82,
63.84,17.352,
63.86,16.848,
63.88,16.236,
63.9,15.552,
63.92,14.796,
63.94,13.968,
63.96,12.996,
63.98,12.096,
64,11.052,
64.02,9.972,
64.04,8.82,
64.06,7.668,
64.08,6.408,
64.1,5.22,
64.12,3.924,
64.14,2.628,
64.16,1.296,
64.18,0,
64.2,-1.296,
64.22,-2.592,
64.24,-3.888,
64.26,-5.148,
64.28,-6.444,
64.3,-7.632,
64.32,-8.82,
64.34,-9.936,
64.36,-11.052,
64.38,-12.096,
64.4,-13.068,
64.42,-13.968,
64.44,-14.796,
64.46,-15.552,
64.48,-16.236,
64.5,-16.848,
64.52,-17.388,
64.54,-17.82,
64.56,-18.18,
64.58,-18.432,
64.6,-18.576,
64.62,-18.684,
64.64,-18.684,
64.66,-18.576,
64.68,-18.36,
64.7,-18.072,
64.72,-17.712,
64.74,-17.244,
64.76,-16.704,
64.78,-16.092,
64.8,-15.372,
64.82,-14.616,
64.84,-13.752,
64.86,-12.852,
64.88,-11.844,
64.9,-10.8,
64.92,-9.72,
64.94,-8.568,
64.96,-7.416,
64.98,-6.192,
65,-4.968,
65.02,-3.708,
65.04,-2.448,
65.06,-1.152,
65.08,0.144,
65.1,1.44,
65.12,2.7,
65.14,3.96,
65.16,5.22,
65.18,6.444,
65.2,7.596,
65.22,8.748,
65.24,9.828,
65.26,10.872,
65.28,11.88,
65.3,12.816,
65.32,13.644,
65.34,14.436,
65.36,15.192,
65.38,15.804,
65.4,16.38,
65.42,16.884,
65.44,17.28,
65.46,17.568,
65.48,17.784,
65.5,17.928,
65.52,17.964,
65.54,17.928,
65.56,17.784,
65.58,17.568,
65.6,17.244,
65.62,16.848,
65.64,16.344,
65.66,15.804,
65.68,15.156,
65.7,14.436,
65.72,13.644,
65.74,12.816,
65.76,11.88,
65.78,10.908,
65.8,9.864,
65.82,8.784,
65.84,7.668,
65.86,6.516,
65.88,5.328,
65.9,4.104,
65.92,2.844,
65.94,1.584,
65.96,0.324,
65.98,-0.936,
66,-2.196,
66.02,-3.42,
66.04,-4.644,
66.06,-5.94,
66.08,-7.056,
66.1,-8.208,
66.12,-9.288,
66.14,-10.368,
66.16,-11.376,
66.18,-12.348,
66.2,-13.212,
66.22,-14.04,
66.24,-14.796,
66.26,-15.48,
66.28,-16.092,
66.3,-16.596,
66.32,-17.064,
66.34,-17.424,
66.36,-17.676,
66.38,-17.856,
66.4,-17.964,
66.42,-17.964,
66.44,-17.892,
66.46,-17.712,
66.48,-17.496,
66.5,-17.136,
66.52,-16.704,
66.54,-16.2,
66.56,-15.624,
66.58,-14.976,
66.6,-14.22,
66.62,-13.428,
66.64,-12.564,
66.66,-11.628,
66.68,-10.656,
66.7,-9.612,
66.72,-8.496,
66.74,-7.416,
66.76,-6.264,
66.78,-5.04,
66.8,-3.852,
66.82,-2.628,
66.84,-1.404,
66.86,-0.144,
66.88,1.08,
66.9,2.304,
66.92,3.528,
66.94,4.716,
66.96,5.904,
66.98,7.056,
67,8.136,
67.02,9.216,
67.04,10.224,
67.06,11.16,
67.08,12.096,
67.1,12.924,
67.12,13.716,
67.14,14.436,
67.16,15.048,
67.18,15.624,
67.2,16.092,
67.22,16.488,
67.24,16.812,
67.26,17.064,
67.28,17.172,
67.3,17.244,
67.32,17.244,
67.34,17.136,
67.36,16.92,
67.38,16.632,
67.4,16.272,
67.42,15.804,
67.44,15.3,
67.46,14.688,
67.48,14.04,
67.5,13.284,
67.52,12.456,
67.54,11.592,
67.56,10.656,
67.58,9.684,
67.6,8.676,
67.62,7.596,
67.64,6.48,
67.66,5.328,
67.68,4.176,
67.7,2.988,
67.72,1.8,
67.74,0.576,
67.76,-0.684,
67.78,-1.836,
67.8,-3.06,
67.82,-4.248,
67.84,-5.436,
67.86,-6.552,
67.88,-7.668,
67.9,-8.712,
67.92,-9.756,
67.94,-10.728,
67.96,-11.664,
67.98,-12.528,
68,-13.356,
68.02,-14.076,
68.04,-14.76,
68.06,-15.336,
68.08,-15.876,
68.1,-16.308,
68.12,-16.668,
68.14,-16.956,
68.16,-17.136,
68.18,-17.244,
68.2,-17.28,
68.22,-17.208,
68.24,-17.064,
68.26,-16.848,
68.28,-16.524,
68.3,-16.128,
68.32,-15.66,
68.34,-15.12,
68.36,-14.508,
68.38,-13.824,
68.4,-13.068,
68.42,-12.24,
68.44,-11.34,
68.46,-10.44,
68.48,-9.432,
68.5,-8.424,
68.52,-7.344,
68.54,-6.228,
68.56,-5.112,
68.58,-3.924,
68.6,-2.736,
68.62,-1.584,
68.64,-0.396,
68.66,0.792,
68.68,1.98,
68.7,3.168,
68.72,4.32,
68.74,5.472,
68.76,6.552,
68.78,7.632,
68.8,8.64,
68.82,9.648,
68.84,10.584,
68.86,11.448,
68.88,12.276,
68.9,13.032,
68.92,13.716,
68.94,14.328,
68.96,14.904,
68.98,15.372,
69,15.768,
69.02,16.092,
69.04,16.308,
69.06,16.488,
69.08,16.524,
69.1,16.56,
69.12,16.452,
69.14,16.272,
69.16,15.984,
69.18,15.66,
69.2,15.264,
69.22,14.76,
69.24,14.184,
69.26,13.572,
69.28,12.852,
69.3,12.096,
69.32,11.268,
69.34,10.368,
69.36,9.432,
69.38,8.46,
69.4,7.452,
69.42,6.408,
69.44,5.328,
69.46,4.176,
69.48,3.06,
69.5,1.872,
69.52,0.72,
69.54,-0.432,
69.56,-1.62,
69.58,-2.736,
69.6,-3.888,
69.62,-5.004,
69.64,-6.12,
69.66,-7.2,
69.68,-8.208,
69.7,-9.216,
69.72,-10.152,
69.74,-11.088,
69.76,-11.916,
69.78,-12.708,
69.8,-13.428,
69.82,-14.076,
69.84,-14.652,
69.86,-15.156,
69.88,-15.588,
69.9,-15.948,
69.92,-16.236,
69.94,-16.416,
69.96,-16.524,
69.98,-16.56,
70,-16.524,
70.02,-16.416,
70.04,-16.2,
70.06,-15.912,
70.08,-15.552,
70.1,-15.12,
70.12,-14.616,
70.14,-14.004,
70.16,-13.356,
70.18,-12.636,
70.2,-11.844,
70.22,-11.016,
70.24,-10.116,
70.26,-9.18,
70.28,-8.208,
70.3,-7.164,
70.32,-6.12,
70.34,-5.04,
70.36,-3.888,
70.38,-2.808,
70.4,-1.692,
70.42,-0.504,
70.44,0.612,
70.46,1.764,
70.48,2.88,
70.5,3.996,
70.52,5.076,
70.54,6.156,
70.56,7.2,
70.58,8.208,
70.6,9.144,
70.62,10.008,
70.64,10.872,
70.66,11.664,
70.68,12.42,
70.7,13.068,
70.72,13.68,
70.74,14.22,
70.76,14.688,
70.78,15.048,
70.8,15.372,
70.82,15.588,
70.84,15.768,
70.86,15.84,
70.88,15.84,
70.9,15.768,
70.92,15.588,
70.94,15.336,
70.96,15.048,
70.98,14.652,
71,14.184,
71.02,13.68,
71.04,13.068,
71.06,12.384,
71.08,11.664,
71.1,10.872,
71.12,10.044,
71.14,9.144,
71.16,8.208,
71.18,7.236,
71.2,6.228,
71.22,5.184,
71.24,4.104,
71.26,3.024,
71.28,1.944,
71.3,0.792,
71.32,-0.324,
71.34,-1.44,
71.36,-2.556,
71.38,-3.6,
71.4,-4.68,
71.42,-5.76,
71.44,-6.804,
71.46,-7.776,
71.48,-8.748,
71.5,-9.648,
71.52,-10.512,
71.54,-11.34,
71.56,-12.096,
71.58,-12.816,
71.6,-13.428,
71.62,-14.004,
71.64,-14.508,
71.66,-14.904,
71.68,-15.264,
71.7,-15.552,
71.72,-15.732,
71.74,-15.84,
71.76,-15.876,
71.78,-15.876,
71.8,-15.732,
71.82,-15.552,
71.84,-15.264,
71.86,-14.94,
71.88,-14.544,
71.9,-14.04,
71.92,-13.464,
71.94,-12.852,
71.96,-12.168,
71.98,-11.412,
72,-10.62,
72.02,-9.792,
72.04,-8.856,
72.06,-7.92,
72.08,-6.948,
72.1,-5.94,
72.12,-4.896,
72.14,-3.852,
72.16,-2.772,
72.18,-1.692,
72.2,-0.576,
72.22,0.504,
72.24,1.62,
72.26,2.664,
72.28,3.744,
72.3,4.824,
72.32,5.832,
72.34,6.84,
72.36,7.776,
72.38,8.676,
72.4,9.54,
72.42,10.332,
72.44,11.124,
72.46,11.844,
72.48,12.456,
72.5,13.068,
72.52,13.572,
72.54,14.04,
72.56,14.4,
72.58,14.688,
72.6,14.94,
72.62,15.084,
72.64,15.156,
72.66,15.156,
72.68,15.084,
72.7,14.94,
72.72,14.724,
72.74,14.436,
72.76,14.04,
72.78,13.608,
72.8,13.104,
72.82,12.528,
72.84,11.88,
72.86,11.196,
72.88,10.44,
72.9,9.648,
72.92,8.784,
72.94,7.92,
72.96,6.984,
72.98,6.012,
73,5.004,
73.02,3.996,
73.04,2.916,
73.06,1.872,
73.08,0.792,
73.1,-0.252,
73.12,-1.332,
73.14,-2.376,
73.16,-3.42,
73.18,-4.464,
73.2,-5.472,
73.22,-6.48,
73.24,-7.452,
73.26,-8.352,
73.28,-9.216,
73.3,-10.08,
73.32,-10.836,
73.34,-11.592,
73.36,-12.24,
73.38,-12.852,
73.4,-13.392,
73.42,-13.86,
73.44,-14.292,
73.46,-14.616,
73.48,-14.868,
73.5,-15.048,
73.52,-15.156,
73.54,-15.192,
73.56,-15.192,
73.58,-15.084,
73.6,-14.904,
73.62,-14.652,
73.64,-14.328,
73.66,-13.932,
73.68,-13.464,
73.7,-12.924,
73.72,-12.312,
73.74,-11.664,
73.76,-10.944,
73.78,-10.188,
73.8,-9.36,
73.82,-8.496,
73.84,-7.596,
73.86,-6.66,
73.88,-5.724,
73.9,-4.716,
73.92,-3.672,
73.94,-2.664,
73.96,-1.62,
73.98,-0.576,
74,0.468,
74.02,1.512,
74.04,2.556,
74.06,3.564,
74.08,4.572,
74.1,5.58,
74.12,6.516,
74.14,7.416,
74.16,8.316,
74.18,9.108,
74.2,9.9,
74.22,10.62,
74.24,11.304,
74.26,11.916,
74.28,12.492,
74.3,12.996,
74.32,13.392,
74.34,13.752,
74.36,14.04,
74.38,14.256,
74.4,14.4,
74.42,14.472,
74.44,14.472,
74.46,14.436,
74.48,14.292,
74.5,14.076,
74.52,13.788,
74.54,13.428,
74.56,12.996,
74.58,12.492,
74.6,11.952,
74.62,11.34,
74.64,10.692,
74.66,9.936,
74.68,9.18,
74.7,8.388,
74.72,7.524,
74.74,6.66,
74.76,5.724,
74.78,4.752,
74.8,3.78,
74.82,2.772,
74.84,1.764,
74.86,0.72,
74.88,-0.288,
74.9,-1.296,
74.92,-2.34,
74.94,-3.312,
74.96,-4.284,
74.98,-5.292,
75,-6.228,
75.02,-7.128,
75.04,-8.028,
75.06,-8.856,
75.08,-9.648,
75.1,-10.404,
75.12,-11.088,
75.14,-11.736,
75.16,-12.312,
75.18,-12.816,
75.2,-13.284,
75.22,-13.68,
75.24,-13.968,
75.26,-14.22,
75.28,-14.4,
75.3,-14.508,
75.32,-14.544,
75.34,-14.508,
75.36,-14.4,
75.38,-14.256,
75.4,-14.004,
75.42,-13.68,
75.44,-13.284,
75.46,-12.852,
75.48,-12.312,
75.5,-11.772,
75.52,-11.124,
75.54,-10.44,
75.56,-9.72,
75.58,-8.928,
75.6,-8.1,
75.62,-7.236,
75.64,-6.336,
75.66,-5.4,
75.68,-4.464,
75.7,-3.456,
75.72,-2.52,
75.74,-1.512,
75.76,-0.504,
75.78,0.504,
75.8,1.512,
75.82,2.484,
75.84,3.456,
75.86,4.428,
75.88,5.364,
75.9,6.264,
75.92,7.128,
75.94,7.956,
75.96,8.748,
75.98,9.504,
76,10.152,
76.02,10.8,
76.04,11.412,
76.06,11.952,
76.08,12.384,
76.1,12.816,
76.12,13.14,
76.14,13.428,
76.16,13.608,
76.18,13.752,
76.2,13.824,
76.22,13.824,
76.24,13.752,
76.26,13.608,
76.28,13.392,
76.3,13.104,
76.32,12.78,
76.34,12.348,
76.36,11.88,
76.38,11.376,
76.4,10.764,
76.42,10.116,
76.44,9.432,
76.46,8.712,
76.48,7.92,
76.5,7.128,
76.52,6.264,
76.54,5.364,
76.56,4.464,
76.58,3.528,
76.6,2.556,
76.62,1.62,
76.64,0.612,
76.66,-0.36,
76.68,-1.332,
76.7,-2.304,
76.72,-3.24,
76.74,-4.176,
76.76,-5.112,
76.78,-5.976,
76.8,-6.876,
76.82,-7.704,
76.84,-8.532,
76.86,-9.288,
76.88,-9.972,
76.9,-10.62,
76.92,-11.232,
76.94,-11.772,
76.96,-12.276,
76.98,-12.708,
77,-13.068,
77.02,-13.356,
77.04,-13.608,
77.06,-13.752,
77.08,-13.86,
77.1,-13.896,
77.12,-13.86,
77.14,-13.752,
77.16,-13.572,
77.18,-13.32,
77.2,-13.032,
77.22,-12.636,
77.24,-12.204,
77.26,-11.736,
77.28,-11.16,
77.3,-10.548,
77.32,-9.9,
77.34,-9.18,
77.36,-8.46,
77.38,-7.632,
77.4,-6.84,
77.42,-5.976,
77.44,-5.076,
77.46,-4.176,
77.48,-3.24,
77.5,-2.304,
77.52,-1.368,
77.54,-0.396,
77.56,0.54,
77.58,1.512,
77.6,2.448,
77.62,3.384,
77.64,4.284,
77.66,5.184,
77.68,6.048,
77.7,6.876,
77.72,7.668,
77.74,8.424,
77.76,9.108,
77.78,9.756,
77.8,10.368,
77.82,10.908,
77.84,11.412,
77.86,11.844,
77.88,12.24,
77.9,12.564,
77.92,12.816,
77.94,12.996,
77.96,13.104,
77.98,13.176,
78,13.176,
78.02,13.104,
78.04,12.924,
78.06,12.708,
78.08,12.456,
78.1,12.096,
78.12,11.736,
78.14,11.268,
78.16,10.728,
78.18,10.188,
78.2,9.576,
78.22,8.928,
78.24,8.208,
78.26,7.488,
78.28,6.696,
78.3,5.868,
78.32,5.004,
78.34,4.104,
78.36,3.24,
78.38,2.34,
78.4,1.404,
78.42,0.468,
78.44,-0.468,
78.46,-1.404,
78.48,-2.304,
78.5,-3.204,
78.52,-4.104,
78.54,-5.004,
78.56,-5.832,
78.58,-6.66,
78.6,-7.488,
78.62,-8.208,
78.64,-8.928,
78.66,-9.612,
78.68,-10.224,
78.7,-10.8,
78.72,-11.304,
78.74,-11.772,
78.76,-12.168,
78.78,-12.492,
78.8,-12.78,
78.82,-12.996,
78.84,-13.14,
78.86,-13.212,
78.88,-13.248,
78.9,-13.176,
78.92,-13.068,
78.94,-12.888,
78.96,-12.672,
78.98,-12.348,
79,-11.988,
79.02,-11.556,
79.04,-11.088,
79.06,-10.548,
79.08,-9.936,
79.1,-9.324,
79.12,-8.64,
79.14,-7.92,
79.16,-7.164,
79.18,-6.372,
79.2,-5.544,
79.22,-4.68,
79.24,-3.816,
79.26,-2.952,
79.28,-2.052,
79.3,-1.152,
79.32,-0.216,
79.34,0.684,
79.36,1.584,
79.38,2.484,
79.4,3.348,
79.42,4.212,
79.44,5.076,
79.46,5.904,
79.48,6.66,
79.5,7.416,
79.52,8.1,
79.54,8.784,
79.56,9.396,
79.58,9.972,
79.6,10.476,
79.62,10.944,
79.64,11.34,
79.66,11.7,
79.68,11.988,
79.7,12.204,
79.72,12.384,
79.74,12.456,
79.76,12.492,
79.78,12.492,
79.8,12.42,
79.82,12.24,
79.84,12.024,
79.86,11.772,
79.88,11.448,
79.9,11.052,
79.92,10.62,
79.94,10.116,
79.96,9.576,
79.98,8.964,
80,8.352,
80.02,7.668,
80.04,6.948,
80.06,6.228,
80.08,5.4,
80.1,4.608,
80.12,3.78,
80.14,2.916,
80.16,2.016,
80.18,1.152,
80.2,0.252,
80.22,-0.612,
80.24,-1.512,
80.26,-2.376,
80.28,-3.24,
80.3,-4.104,
80.32,-4.932,
80.34,-5.724,
80.36,-6.48,
80.38,-7.236,
80.4,-7.956,
80.42,-8.64,
80.44,-9.252,
80.46,-9.828,
80.48,-10.368,
80.5,-10.836,
80.52,-11.268,
80.54,-11.628,
80.56,-11.952,
80.58,-12.204,
80.6,-12.384,
80.62,-12.492,
80.64,-12.564,
80.66,-12.6,
80.68,-12.528,
80.7,-12.384,
80.72,-12.204,
80.74,-11.988,
80.76,-11.664,
80.78,-11.304,
80.8,-10.908,
80.82,-10.44,
80.84,-9.9,
80.86,-9.36,
80.88,-8.748,
80.9,-8.064,
80.92,-7.38,
80.94,-6.624,
80.96,-5.868,
80.98,-5.112,
81,-4.284,
81.02,-3.456,
81.04,-2.592,
81.06,-1.764,
81.08,-0.9,
81.1,-0.036,
81.12,0.828,
81.14,1.692,
81.16,2.52,
81.18,3.384,
81.2,4.176,
81.22,5.004,
81.24,5.76,
81.26,6.48,
81.28,7.2,
81.3,7.848,
81.32,8.496,
81.34,9.036,
81.36,9.576,
81.38,10.044,
81.4,10.476,
81.42,10.836,
81.44,11.16,
81.46,11.412,
81.48,11.628,
81.5,11.772,
81.52,11.844,
81.54,11.88,
81.56,11.844,
81.58,11.736,
81.6,11.592,
81.62,11.376,
81.64,11.088,
81.66,10.764,
81.68,10.404,
81.7,9.972,
81.72,9.468,
81.74,8.928,
81.76,8.388,
81.78,7.776,
81.8,7.128,
81.82,6.408,
81.84,5.688,
81.86,4.932,
81.88,4.176,
81.9,3.348,
81.92,2.52,
81.94,1.728,
81.96,0.864,
81.98,0.036,
82,-0.792,
82.02,-1.656,
82.04,-2.484,
82.06,-3.276,
82.08,-4.104,
82.1,-4.86,
82.12,-5.616,
82.14,-6.372,
82.16,-7.056,
82.18,-7.74,
82.2,-8.352,
82.22,-8.928,
82.24,-9.468,
82.26,-9.972,
82.28,-10.404,
82.3,-10.8,
82.32,-11.16,
82.34,-11.412,
82.36,-11.628,
82.38,-11.808,
82.4,-11.88,
82.42,-11.952,
82.44,-11.952,
82.46,-11.88,
82.48,-11.736,
82.5,-11.556,
82.52,-11.304,
82.54,-11.016,
82.56,-10.656,
82.58,-10.224,
82.6,-9.792,
82.62,-9.288,
82.64,-8.712,
82.66,-8.136,
82.68,-7.488,
82.7,-6.84,
82.72,-6.12,
82.74,-5.4,
82.76,-4.644,
82.78,-3.852,
82.8,-3.06,
82.82,-2.268,
82.84,-1.44,
82.86,-0.648,
82.88,0.18,
82.9,1.008,
82.92,1.8,
82.94,2.592,
82.96,3.384,
82.98,4.176,
83,4.896,
83.02,5.616,
83.04,6.336,
83.06,6.984,
83.08,7.596,
83.1,8.172,
83.12,8.712,
83.14,9.18,
83.16,9.648,
83.18,10.008,
83.2,10.368,
83.22,10.656,
83.24,10.872,
83.26,11.052,
83.28,11.16,
83.3,11.232,
83.32,11.232,
83.34,11.196,
83.36,11.088,
83.38,10.908,
83.4,10.692,
83.42,10.404,
83.44,10.08,
83.46,9.72,
83.48,9.288,
83.5,8.82,
83.52,8.316,
83.54,7.74,
83.56,7.164,
83.58,6.516,
83.6,5.868,
83.62,5.184,
83.64,4.464,
83.66,3.672,
83.68,2.916,
83.7,2.16,
83.72,1.368,
83.74,0.576,
83.76,-0.216,
83.78,-1.044,
83.8,-1.836,
83.82,-2.592,
83.84,-3.348,
83.86,-4.104,
83.88,-4.824,
83.9,-5.544,
83.92,-6.264,
83.94,-6.876,
83.96,-7.524,
83.98,-8.1,
84,-8.64,
84.02,-9.108,
84.04,-9.576,
84.06,-10.008,
84.08,-10.332,
84.1,-10.656,
84.12,-10.872,
84.14,-11.088,
84.16,-11.232,
84.18,-11.304,
84.2,-11.304,
84.22,-11.304,
84.24,-11.196,
84.26,-11.052,
84.28,-10.872,
84.3,-10.62,
84.32,-10.332,
84.34,-9.972,
84.36,-9.576,
84.38,-9.108,
84.4,-8.64,
84.42,-8.064,
84.44,-7.524,
84.46,-6.912,
84.48,-6.264,
84.5,-5.58,
84.52,-4.932,
84.54,-4.176,
84.56,-3.42,
84.58,-2.664,
84.6,-1.908,
84.62,-1.152,
84.64,-0.396,
84.66,0.432,
84.68,1.188,
84.7,1.944,
84.72,2.7,
84.74,3.42,
84.76,4.176,
84.78,4.86,
84.8,5.544,
84.82,6.192,
84.84,6.768,
84.86,7.38,
84.88,7.884,
84.9,8.388,
84.92,8.82,
84.94,9.216,
84.96,9.576,
84.98,9.864,
85,10.116,
85.02,10.332,
85.04,10.476,
85.06,10.548,
85.08,10.584,
85.1,10.584,
85.12,10.548,
85.14,10.404,
85.16,10.224,
85.18,10.008,
85.2,9.72,
85.22,9.396,
85.24,9.036,
85.26,8.604,
85.28,8.172,
85.3,7.668,
85.32,7.128,
85.34,6.552,
85.36,5.94,
85.38,5.292,
85.4,4.608,
85.42,3.924,
85.44,3.204,
85.46,2.484,
85.48,1.728,
85.5,1.008,
85.52,0.252,
85.54,-0.468,
85.56,-1.26,
85.58,-2.016,
85.6,-2.7,
85.62,-3.456,
85.64,-4.14,
85.66,-4.824,
85.68,-5.508,
85.7,-6.12,
85.72,-6.768,
85.74,-7.308,
85.76,-7.848,
85.78,-8.352,
85.8,-8.784,
85.82,-9.216,
85.84,-9.576,
85.86,-9.864,
85.88,-10.152,
85.9,-10.368,
85.92,-10.512,
85.94,-10.62,
85.96,-10.692,
85.98,-10.692,
86,-10.656,
86.02,-10.548,
86.04,-10.404,
86.06,-10.188,
86.08,-9.936,
86.1,-9.648,
86.12,-9.288,
86.14,-8.892,
86.16,-8.46,
86.18,-7.956,
86.2,-7.416,
86.22,-6.84,
86.24,-6.3,
86.26,-5.688,
86.28,-5.04,
86.3,-4.392,
86.32,-3.672,
86.34,-2.988,
86.36,-2.268,
86.38,-1.512,
86.4,-0.792,
86.42,-0.072,
86.44,0.684,
86.46,1.368,
86.48,2.088,
86.5,2.772,
86.52,3.492,
86.54,4.176,
86.56,4.824,
86.58,5.436,
86.6,6.048,
86.62,6.624,
86.64,7.128,
86.66,7.632,
86.68,8.064,
86.7,8.46,
86.72,8.82,
86.74,9.144,
86.76,9.396,
86.78,9.612,
86.8,9.792,
86.82,9.9,
86.84,9.972,
86.86,9.972,
86.88,9.972,
86.9,9.864,
86.92,9.72,
86.94,9.54,
86.96,9.324,
86.98,9.036,
87,8.712,
87.02,8.352,
87.04,7.956,
87.06,7.488,
87.08,6.984,
87.1,6.48,
87.12,5.94,
87.14,5.292,
87.16,4.716,
87.18,4.068,
87.2,3.42,
87.22,2.736,
87.24,2.052,
87.26,1.332,
87.28,0.648,
87.3,-0.072,
87.32,-0.792,
87.34,-1.512,
87.36,-2.232,
87.38,-2.88,
87.4,-3.528,
87.42,-4.176,
87.44,-4.824,
87.46,-5.436,
87.48,-6.048,
87.5,-6.588,
87.52,-7.128,
87.54,-7.596,
87.56,-8.064,
87.58,-8.46,
87.6,-8.82,
87.62,-9.144,
87.64,-9.432,
87.66,-9.648,
87.68,-9.828,
87.7,-9.972,
87.72,-10.044,
87.74,-10.08,
87.76,-10.08,
87.78,-10.008,
87.8,-9.864,
87.82,-9.72,
87.84,-9.504,
87.86,-9.216,
87.88,-8.928,
87.9,-8.568,
87.92,-8.172,
87.94,-7.74,
87.96,-7.272,
87.98,-6.768,
88,-6.228,
88.02,-5.652,
88.04,-5.04,
88.06,-4.428,
88.08,-3.816,
88.1,-3.168,
88.12,-2.484,
88.14,-1.8,
88.16,-1.116,
88.18,-0.432,
88.2,0.252,
88.22,0.936,
88.24,1.62,
88.26,2.304,
88.28,2.952,
88.3,3.6,
88.32,4.212,
88.34,4.824,
88.36,5.4,
88.38,5.94,
88.4,6.444,
88.42,6.948,
88.44,7.38,
88.46,7.776,
88.48,8.136,
88.5,8.424,
88.52,8.712,
88.54,8.928,
88.56,9.108,
88.58,9.252,
88.6,9.324,
88.62,9.36,
88.64,9.36,
88.66,9.324,
88.68,9.216,
88.7,9.036,
88.72,8.856,
88.74,8.604,
88.76,8.316,
88.78,7.992,
88.8,7.632,
88.82,7.2,
88.84,6.768,
88.86,6.3,
88.88,5.796,
88.9,5.256,
88.92,4.68,
88.94,4.104,
88.96,3.456,
88.98,2.844,
89,2.196,
89.02,1.548,
89.04,0.864,
89.06,0.216,
89.08,-0.468,
89.1,-1.116,
89.12,-1.8,
89.14,-2.448,
89.16,-3.06,
89.18,-3.672,
89.2,-4.284,
89.22,-4.86,
89.24,-5.436,
89.26,-5.976,
89.28,-6.48,
89.3,-6.948,
89.32,-7.38,
89.34,-7.776,
89.36,-8.136,
89.38,-8.46,
89.4,-8.748,
89.42,-9,
89.44,-9.18,
89.46,-9.324,
89.48,-9.396,
89.5,-9.432,
89.52,-9.468,
89.54,-9.432,
89.56,-9.324,
89.58,-9.18,
89.6,-9,
89.62,-8.784,
89.64,-8.496,
89.66,-8.172,
89.68,-7.812,
89.7,-7.416,
89.72,-6.984,
89.74,-6.552,
89.76,-6.048,
89.78,-5.508,
89.8,-4.968,
89.82,-4.392,
89.84,-3.816,
89.86,-3.204,
89.88,-2.592,
89.9,-1.944,
89.92,-1.332,
89.94,-0.684,
89.96,-0.036,
89.98,0.612,
90,1.26,
90.02,1.908,
90.04,2.52,
90.06,3.132,
90.08,3.708,
90.1,4.284,
90.12,4.824,
90.14,5.364,
90.16,5.832,
90.18,6.3,
90.2,6.732,
90.22,7.128,
90.24,7.488,
90.26,7.776,
90.28,8.064,
90.3,8.28,
90.32,8.46,
90.34,8.604,
90.36,8.712,
90.38,8.748,
90.4,8.784,
90.42,8.748,
90.44,8.64,
90.46,8.532,
90.48,8.352,
90.5,8.136,
90.52,7.884,
90.54,7.596,
90.56,7.272,
90.58,6.876,
90.6,6.48,
90.62,6.048,
90.64,5.58,
90.66,5.076,
90.68,4.536,
90.7,3.996,
90.72,3.456,
90.74,2.844,
90.76,2.268,
90.78,1.656,
90.8,1.044,
90.82,0.396,
90.84,-0.216,
90.86,-0.828,
90.88,-1.476,
90.9,-2.088,
90.92,-2.664,
90.94,-3.24,
90.96,-3.816,
90.98,-4.392,
91,-4.896,
91.02,-5.436,
91.04,-5.904,
91.06,-6.372,
91.08,-6.768,
91.1,-7.164,
91.12,-7.524,
91.14,-7.848,
91.16,-8.1,
91.18,-8.352,
91.2,-8.532,
91.22,-8.676,
91.24,-8.784,
91.26,-8.82,
91.28,-8.856,
91.3,-8.82,
91.32,-8.748,
91.34,-8.64,
91.36,-8.496,
91.38,-8.28,
91.4,-8.028,
91.42,-7.74,
91.44,-7.416,
91.46,-7.056,
91.48,-6.696,
91.5,-6.264,
91.52,-5.796,
91.54,-5.328,
91.56,-4.824,
91.58,-4.284,
91.6,-3.744,
91.62,-3.168,
91.64,-2.592,
91.66,-2.016,
91.68,-1.44,
91.7,-0.828,
91.72,-0.216,
91.74,0.36,
91.76,1.008,
91.78,1.584,
91.8,2.16,
91.82,2.736,
91.84,3.276,
91.86,3.816,
91.88,4.32,
91.9,4.824,
91.92,5.292,
91.94,5.76,
91.96,6.192,
91.98,6.516,
92,6.876,
92.02,7.164,
92.04,7.452,
92.06,7.668,
92.08,7.848,
92.1,7.992,
92.12,8.1,
92.14,8.172,
92.16,8.172,
92.18,8.172,
92.2,8.1,
92.22,7.992,
92.24,7.848,
92.26,7.632,
92.28,7.416,
92.3,7.164,
92.32,6.84,
92.34,6.516,
92.36,6.156,
92.38,5.76,
92.4,5.328,
92.42,4.86,
92.44,4.356,
92.46,3.852,
92.48,3.348,
92.5,2.808,
92.52,2.232,
92.54,1.656,
92.56,1.08,
92.58,0.504,
92.6,-0.072,
92.62,-0.648,
92.64,-1.224,
92.66,-1.8,
92.68,-2.376,
92.7,-2.916,
92.72,-3.42,
92.74,-3.96,
92.76,-4.464,
92.78,-4.932,
92.8,-5.4,
92.82,-5.832,
92.84,-6.228,
92.86,-6.588,
92.88,-6.948,
92.9,-7.236,
92.92,-7.488,
92.94,-7.74,
92.96,-7.92,
92.98,-8.064,
93,-8.172,
93.02,-8.208,
93.04,-8.244,
93.06,-8.244,
93.08,-8.172,
93.1,-8.1,
93.12,-7.956,
93.14,-7.776,
93.16,-7.56,
93.18,-7.308,
93.2,-6.984,
93.22,-6.66,
93.24,-6.336,
93.26,-5.94,
93.28,-5.508,
93.3,-5.076,
93.32,-4.608,
93.34,-4.14,
93.36,-3.636,
93.38,-3.096,
93.4,-2.556,
93.42,-2.052,
93.44,-1.476,
93.46,-0.9,
93.48,-0.36,
93.5,0.18,
93.52,0.756,
93.54,1.296,
93.56,1.836,
93.58,2.376,
93.6,2.88,
93.62,3.384,
93.64,3.888,
93.66,4.356,
93.68,4.788,
93.7,5.22,
93.72,5.616,
93.74,5.976,
93.76,6.3,
93.78,6.588,
93.8,6.84,
93.82,7.056,
93.84,7.236,
93.86,7.38,
93.88,7.488,
93.9,7.56,
93.92,7.596,
93.94,7.56,
93.96,7.524,
93.98,7.416,
94,7.308,
94.02,7.128,
94.04,6.948,
94.06,6.696,
94.08,6.408,
94.1,6.12,
94.12,5.76,
94.14,5.4,
94.16,5.004,
94.18,4.572,
94.2,4.14,
94.22,3.672,
94.24,3.204,
94.26,2.7,
94.28,2.196,
94.3,1.656,
94.32,1.116,
94.34,0.576,
94.36,0.036,
94.38,-0.504,
94.4,-1.044,
94.42,-1.548,
94.44,-2.088,
94.46,-2.592,
94.48,-3.096,
94.5,-3.564,
94.52,-4.032,
94.54,-4.5,
94.56,-4.932,
94.58,-5.328,
94.6,-5.688,
94.62,-6.048,
94.64,-6.372,
94.66,-6.66,
94.68,-6.912,
94.7,-7.128,
94.72,-7.308,
94.74,-7.452,
94.76,-7.56,
94.78,-7.632,
94.8,-7.668,
94.82,-7.668,
94.84,-7.632,
94.86,-7.524,
94.88,-7.416,
94.9,-7.272,
94.92,-7.056,
94.94,-6.804,
94.96,-6.552,
94.98,-6.264,
95,-5.94,
95.02,-5.58,
95.04,-5.22,
95.06,-4.788,
95.08,-4.392,
95.1,-3.924,
95.12,-3.456,
95.14,-2.988,
95.16,-2.52,
95.18,-2.016,
95.2,-1.512,
95.22,-1.008,
95.24,-0.468,
95.26,0.036,
95.28,0.576,
95.3,1.08,
95.32,1.584,
95.34,2.088,
95.36,2.556,
95.38,3.024,
95.4,3.492,
95.42,3.924,
95.44,4.32,
95.46,4.716,
95.48,5.076,
95.5,5.436,
95.52,5.724,
95.54,6.012,
95.56,6.264,
95.58,6.48,
95.6,6.624,
95.62,6.768,
95.64,6.876,
95.66,6.948,
95.68,6.984,
95.7,6.984,
95.72,6.948,
95.74,6.876,
95.76,6.768,
95.78,6.624,
95.8,6.444,
95.82,6.228,
95.84,5.976,
95.86,5.688,
95.88,5.364,
95.9,5.04,
95.92,4.68,
95.94,4.284,
95.96,3.888,
95.98,3.456,
96,3.024,
96.02,2.556,
96.04,2.088,
96.06,1.584,
96.08,1.116,
96.1,0.612,
96.12,0.108,
96.14,-0.36,
96.16,-0.864,
96.18,-1.368,
96.2,-1.836,
96.22,-2.304,
96.24,-2.772,
96.26,-3.24,
96.28,-3.636,
96.3,-4.068,
96.32,-4.464,
96.34,-4.824,
96.36,-5.184,
96.38,-5.508,
96.4,-5.832,
96.42,-6.084,
96.44,-6.336,
96.46,-6.552,
96.48,-6.696,
96.5,-6.84,
96.52,-6.948,
96.54,-7.02,
96.56,-7.056,
96.58,-7.056,
96.6,-7.02,
96.62,-6.984,
96.64,-6.84,
96.66,-6.732,
96.68,-6.552,
96.7,-6.336,
96.72,-6.12,
96.74,-5.832,
96.76,-5.544,
96.78,-5.22,
96.8,-4.896,
96.82,-4.536,
96.84,-4.14,
96.86,-3.744,
96.88,-3.312,
96.9,-2.88,
96.92,-2.448,
96.94,-1.98,
96.96,-1.512,
96.98,-1.044,
97,-0.576,
97.02,-0.108,
97.04,0.36,
97.06,0.864,
97.08,1.296,
97.1,1.764,
97.12,2.232,
97.14,2.628,
97.16,3.06,
97.18,3.456,
97.2,3.852,
97.22,4.212,
97.24,4.572,
97.26,4.896,
97.28,5.184,
97.3,5.436,
97.32,5.652,
97.34,5.868,
97.36,6.048,
97.38,6.192,
97.4,6.264,
97.42,6.336,
97.44,6.372,
97.46,6.408,
97.48,6.372,
97.5,6.3,
97.52,6.192,
97.54,6.084,
97.56,5.904,
97.58,5.724,
97.6,5.508,
97.62,5.256,
97.64,4.968,
97.66,4.68,
97.68,4.32,
97.7,3.996,
97.72,3.6,
97.74,3.24,
97.76,2.808,
97.78,2.412,
97.8,1.98,
97.82,1.548,
97.84,1.08,
97.86,0.648,
97.88,0.18,
97.9,-0.252,
97.92,-0.72,
97.94,-1.188,
97.96,-1.62,
97.98,-2.052,
98,-2.484,
98.02,-2.88,
98.04,-3.276,
98.06,-3.672,
98.08,-4.032,
98.1,-4.356,
98.12,-4.68,
98.14,-5.004,
98.16,-5.292,
98.18,-5.544,
98.2,-5.76,
98.22,-5.94,
98.24,-6.12,
98.26,-6.264,
98.28,-6.336,
98.3,-6.408,
98.32,-6.48,
98.34,-6.48,
98.36,-6.444,
98.38,-6.408,
98.4,-6.3,
98.42,-6.192,
98.44,-6.048,
98.46,-5.868,
98.48,-5.652,
98.5,-5.436,
98.52,-5.148,
98.54,-4.896,
98.56,-4.572,
98.58,-4.248,
98.6,-3.888,
98.62,-3.528,
98.64,-3.168,
98.66,-2.772,
98.68,-2.376,
98.7,-1.98,
98.72,-1.548,
98.74,-1.116,
98.76,-0.684,
98.78,-0.252,
98.8,0.18,
98.82,0.612,
98.84,1.044,
98.86,1.44,
98.88,1.872,
98.9,2.268,
98.92,2.664,
98.94,3.024,
98.96,3.384,
98.98,3.708,
99,4.032,
99.02,4.32,
99.04,4.608,
99.06,4.86,
99.08,5.076,
99.1,5.256,
99.12,5.436,
99.14,5.544,
99.16,5.652,
99.18,5.76,
99.2,5.796,
99.22,5.796,
99.24,5.796,
99.26,5.76,
99.28,5.652,
99.3,5.544,
99.32,5.4,
99.34,5.256,
99.36,5.04,
99.38,4.824,
99.4,4.572,
99.42,4.32,
99.44,4.032,
99.46,3.708,
99.48,3.348,
99.5,3.024,
99.52,2.664,
99.54,2.304,
99.56,1.908,
99.58,1.476,
99.6,1.08,
99.62,0.684,
99.64,0.288,
99.66,-0.144,
99.68,-0.54,
99.7,-0.972,
99.72,-1.368,
99.74,-1.764,
99.76,-2.16,
99.78,-2.52,
99.8,-2.88,
99.82,-3.24,
99.84,-3.564,
99.86,-3.888,
99.88,-4.176,
99.9,-4.464,
99.92,-4.716,
99.94,-4.968,
99.96,-5.184,
99.98,-5.364,
100,-5.508,
100.02,-5.652,
100.04,-5.76,
100.06,-5.832,
100.08,-5.868,
100.1,-5.868,
100.12,-5.868,
100.14,-5.832,
100.16,-5.76,
100.18,-5.688,
100.2,-5.544,
100.22,-5.4,
100.24,-5.22,
100.26,-5.04,
100.28,-4.824,
100.3,-4.572,
100.32,-4.284,
100.34,-3.996,
100.36,-3.708,
100.38,-3.384,
100.4,-3.06,
100.42,-2.7,
100.44,-2.34,
100.46,-1.98,
100.48,-1.62,
100.5,-1.224,
100.52,-0.828,
100.54,-0.432,
100.56,-0.072,
100.58,0.324,
100.6,0.72,
100.62,1.116,
100.64,1.476,
100.66,1.836,
100.68,2.196,
100.7,2.556,
100.72,2.88,
100.74,3.168,
100.76,3.492,
100.78,3.744,
100.8,4.032,
100.82,4.248,
100.84,4.464,
100.86,4.644,
100.88,4.824,
100.9,4.932,
100.92,5.04,
100.94,5.148,
100.96,5.184,
100.98,5.22,
101,5.22,
101.02,5.184,
101.04,5.112,
101.06,5.04,
101.08,4.932,
101.1,4.788,
101.12,4.608,
101.14,4.428,
101.16,4.212,
101.18,3.996,
101.2,3.744,
101.22,3.456,
101.24,3.168,
101.26,2.88,
101.28,2.556,
101.3,2.196,
101.32,1.872,
101.34,1.512,
101.36,1.152,
101.38,0.792,
101.4,0.432,
101.42,0.036,
101.44,-0.324,
101.46,-0.684,
101.48,-1.08,
101.5,-1.404,
101.52,-1.764,
101.54,-2.124,
101.56,-2.448,
101.58,-2.772,
101.6,-3.06,
101.62,-3.348,
101.64,-3.636,
101.66,-3.888,
101.68,-4.14,
101.7,-4.356,
101.72,-4.536,
101.74,-4.716,
101.76,-4.896,
101.78,-5.004,
101.8,-5.112,
101.82,-5.184,
101.84,-5.256,
101.86,-5.292,
101.88,-5.292,
101.9,-5.292,
101.92,-5.22,
101.94,-5.148,
101.96,-5.04,
101.98,-4.932,
102,-4.788,
102.02,-4.644,
102.04,-4.464,
102.06,-4.248,
102.08,-4.032,
102.1,-3.78,
102.12,-3.528,
102.14,-3.24,
102.16,-2.952,
102.18,-2.664,
102.2,-2.34,
102.22,-2.016,
102.24,-1.692,
102.26,-1.368,
102.28,-1.008,
102.3,-0.684,
102.32,-0.324,
102.34,0.036,
102.36,0.396,
102.38,0.72,
102.4,1.044,
102.42,1.404,
102.44,1.728,
102.46,2.016,
102.48,2.34,
102.5,2.628,
102.52,2.88,
102.54,3.168,
102.56,3.384,
102.58,3.636,
102.6,3.816,
102.62,4.032,
102.64,4.176,
102.66,4.32,
102.68,4.428,
102.7,4.5,
102.72,4.572,
102.74,4.608,
102.76,4.644,
102.78,4.644,
102.8,4.608,
102.82,4.536,
102.84,4.464,
102.86,4.356,
102.88,4.212,
102.9,4.068,
102.92,3.888,
102.94,3.672,
102.96,3.456,
102.98,3.24,
103,2.988,
103.02,2.736,
103.04,2.448,
103.06,2.16,
103.08,1.872,
103.1,1.548,
103.12,1.26,
103.14,0.936,
103.16,0.612,
103.18,0.288,
103.2,-0.072,
103.22,-0.36,
103.24,-0.72,
103.26,-1.008,
103.28,-1.332,
103.3,-1.656,
103.32,-1.944,
103.34,-2.232,
103.36,-2.52,
103.38,-2.772,
103.4,-3.024,
103.42,-3.276,
103.44,-3.492,
103.46,-3.708,
103.48,-3.888,
103.5,-4.068,
103.52,-4.212,
103.54,-4.356,
103.56,-4.464,
103.58,-4.536,
103.6,-4.608,
103.62,-4.644,
103.64,-4.68,
103.66,-4.68,
103.68,-4.68,
103.7,-4.608,
103.72,-4.572,
103.74,-4.464,
103.76,-4.356,
103.78,-4.248,
103.8,-4.104,
103.82,-3.924,
103.84,-3.744,
103.86,-3.528,
103.88,-3.312,
103.9,-3.096,
103.92,-2.844,
103.94,-2.592,
103.96,-2.34,
103.98,-2.088,
104,-1.8,
104.02,-1.512,
104.04,-1.188,
104.06,-0.9,
104.08,-0.576,
104.1,-0.288,
104.12,0.036,
104.14,0.324,
104.16,0.612,
104.18,0.936,
104.2,1.224,
104.22,1.512,
104.24,1.764,
104.26,2.052,
104.28,2.304,
104.3,2.52,
104.32,2.772,
104.34,2.988,
104.36,3.168,
104.38,3.348,
104.4,3.492,
104.42,3.636,
104.44,3.78,
104.46,3.888,
104.48,3.96,
104.5,3.996,
104.52,4.032,
104.54,4.032,
104.56,4.032,
104.58,4.032,
104.6,3.96,
104.62,3.888,
104.64,3.78,
104.66,3.672,
104.68,3.528,
104.7,3.384,
104.72,3.204,
104.74,3.024,
104.76,2.808,
104.78,2.592,
104.8,2.376,
104.82,2.16,
104.84,1.872,
104.86,1.62,
104.88,1.368,
104.9,1.08,
104.92,0.792,
104.94,0.504,
104.96,0.216,
104.98,-0.036,
105,-0.324,
105.02,-0.612,
105.04,-0.9,
105.06,-1.152,
105.08,-1.44,
105.1,-1.692,
105.12,-1.944,
105.14,-2.196,
105.16,-2.412,
105.18,-2.664,
105.2,-2.844,
105.22,-3.024,
105.24,-3.24,
105.26,-3.384,
105.28,-3.528,
105.3,-3.672,
105.32,-3.78,
105.34,-3.852,
105.36,-3.96,
105.38,-3.996,
105.4,-4.032,
105.42,-4.068,
105.44,-4.068,
105.46,-4.032,
105.48,-3.996,
105.5,-3.96,
105.52,-3.888,
105.54,-3.78,
105.56,-3.672,
105.58,-3.564,
105.6,-3.42,
105.62,-3.24,
105.64,-3.096,
105.66,-2.916,
105.68,-2.7,
105.7,-2.52,
105.72,-2.304,
105.74,-2.088,
105.76,-1.836,
105.78,-1.584,
105.8,-1.332,
105.82,-1.08,
105.84,-0.828,
105.86,-0.576,
105.88,-0.288,
105.9,-0.036,
105.92,0.216,
105.94,0.468,
105.96,0.756,
105.98,1.008,
106,1.224,
106.02,1.476,
106.04,1.692,
106.06,1.908,
106.08,2.124,
106.1,2.34,
106.12,2.52,
106.14,2.664,
106.16,2.844,
106.18,2.988,
106.2,3.096,
106.22,3.204,
106.24,3.312,
106.26,3.348,
106.28,3.42,
106.3,3.456,
106.32,3.456,
106.34,3.456,
106.36,3.456,
106.38,3.42,
106.4,3.348,
106.42,3.276,
106.44,3.168,
106.46,3.06,
106.48,2.952,
106.5,2.808,
106.52,2.664,
106.54,2.484,
106.56,2.304,
106.58,2.088,
106.6,1.908,
106.62,1.692,
106.64,1.476,
106.66,1.26,
106.68,1.008,
106.7,0.792,
106.72,0.54,
106.74,0.288,
106.76,0.072,
106.78,-0.18,
106.8,-0.432,
106.82,-0.684,
106.84,-0.9,
106.86,-1.116,
106.88,-1.368,
106.9,-1.584,
106.92,-1.8,
106.94,-1.98,
106.96,-2.16,
106.98,-2.34,
107,-2.52,
107.02,-2.664,
107.04,-2.808,
107.06,-2.952,
107.08,-3.06,
107.1,-3.168,
107.12,-3.24,
107.14,-3.312,
107.16,-3.384,
107.18,-3.42,
107.2,-3.42,
107.22,-3.42,
107.24,-3.42,
107.26,-3.42,
107.28,-3.384,
107.3,-3.312,
107.32,-3.24,
107.34,-3.168,
107.36,-3.06,
107.38,-2.952,
107.4,-2.808,
107.42,-2.664,
107.44,-2.52,
107.46,-2.376,
107.48,-2.196,
107.5,-2.016,
107.52,-1.836,
107.54,-1.656,
107.56,-1.44,
107.58,-1.224,
107.6,-1.008,
107.62,-0.828,
107.64,-0.612,
107.66,-0.396,
107.68,-0.144,
107.7,0.072,
107.72,0.288,
107.74,0.504,
107.76,0.72,
107.78,0.9,
107.8,1.116,
107.82,1.296,
107.84,1.512,
107.86,1.692,
107.88,1.836,
107.9,2.016,
107.92,2.16,
107.94,2.304,
107.96,2.412,
107.98,2.52,
108,2.628,
108.02,2.7,
108.04,2.772,
108.06,2.808,
108.08,2.844,
108.1,2.88,
108.12,2.88,
108.14,2.88,
108.16,2.844,
108.18,2.808,
108.2,2.772,
108.22,2.7,
108.24,2.628,
108.26,2.52,
108.28,2.412,
108.3,2.304,
108.32,2.16,
108.34,2.016,
108.36,1.872,
108.38,1.692,
108.4,1.512,
108.42,1.368,
108.44,1.188,
108.46,0.972,
108.48,0.792,
108.5,0.612,
108.52,0.396,
108.54,0.216,
108.56,0,
108.58,-0.18,
108.6,-0.396,
108.62,-0.576,
108.64,-0.792,
108.66,-0.972,
108.68,-1.152,
108.7,-1.332,
108.72,-1.512,
108.74,-1.656,
108.76,-1.8,
108.78,-1.944,
108.8,-2.088,
108.82,-2.196,
108.84,-2.304,
108.86,-2.412,
108.88,-2.52,
108.9,-2.592,
108.92,-2.664,
108.94,-2.7,
108.96,-2.736,
108.98,-2.772,
109,-2.808,
109.02,-2.808,
109.04,-2.808,
109.06,-2.772,
109.08,-2.736,
109.1,-2.7,
109.12,-2.628,
109.14,-2.556,
109.16,-2.448,
109.18,-2.376,
109.2,-2.268,
109.22,-2.16,
109.24,-2.016,
109.26,-1.908,
109.28,-1.764,
109.3,-1.62,
109.32,-1.476,
109.34,-1.296,
109.36,-1.152,
109.38,-0.972,
109.4,-0.828,
109.42,-0.648,
109.44,-0.468,
109.46,-0.288,
109.48,-0.144,
109.5,0.036,
109.52,0.216,
109.54,0.396,
109.56,0.576,
109.58,0.72,
109.6,0.9,
109.62,1.044,
109.64,1.188,
109.66,1.332,
109.68,1.476,
109.7,1.584,
109.72,1.728,
109.74,1.8,
109.76,1.908,
109.78,2.016,
109.8,2.088,
109.82,2.124,
109.84,2.196,
109.86,2.232,
109.88,2.268,
109.9,2.268,
109.92,2.268,
109.94,2.268,
109.96,2.268,
109.98,2.232,
110,2.196,
110.02,2.124,
110.04,2.052,
110.06,1.98,
110.08,1.908,
110.1,1.8,
110.12,1.728,
110.14,1.584,
110.16,1.476,
110.18,1.368,
110.2,1.224,
110.22,1.08,
110.24,0.936,
110.26,0.792,
110.28,0.648,
110.3,0.504,
110.32,0.36,
110.34,0.18,
110.36,0.036,
110.38,-0.108,
110.4,-0.288,
110.42,-0.432,
110.44,-0.576,
110.46,-0.72,
110.48,-0.864,
110.5,-1.008,
110.52,-1.116,
110.54,-1.26,
110.56,-1.368,
110.58,-1.476,
110.6,-1.584,
110.62,-1.692,
110.64,-1.764,
110.66,-1.872,
110.68,-1.944,
110.7,-1.98,
110.72,-2.052,
110.74,-2.088,
110.76,-2.124,
110.78,-2.124,
110.8,-2.16,
110.82,-2.16,
110.84,-2.16,
110.86,-2.124,
110.88,-2.088,
110.9,-2.052,
110.92,-2.016,
110.94,-1.98,
110.96,-1.908,
110.98,-1.836,
111,-1.764,
111.02,-1.656,
111.04,-1.584,
111.06,-1.476,
111.08,-1.368,
111.1,-1.26,
111.12,-1.152,
111.14,-1.008,
111.16,-0.9,
111.18,-0.792,
111.2,-0.648,
111.22,-0.54,
111.24,-0.396,
111.26,-0.252,
111.28,-0.144,
111.3,0,
111.32,0.144,
111.34,0.252,
111.36,0.396,
111.38,0.504,
111.4,0.648,
111.42,0.756,
111.44,0.864,
111.46,0.972,
111.48,1.044,
111.5,1.152,
111.52,1.224,
111.54,1.332,
111.56,1.368,
111.58,1.44,
111.6,1.512,
111.62,1.548,
111.64,1.584,
111.66,1.62,
111.68,1.656,
111.7,1.656,
111.72,1.656,
111.74,1.656,
111.76,1.656,
111.78,1.62,
111.8,1.584,
111.82,1.548,
111.84,1.512,
111.86,1.44,
111.88,1.404,
111.9,1.332,
111.92,1.224,
111.94,1.152,
111.96,1.08,
111.98,1.008,
112,0.9,
112.02,0.792,
112.04,0.684,
112.06,0.612,
112.08,0.504,
112.1,0.36,
112.12,0.288,
112.14,0.144,
112.16,0.036,
112.18,-0.072,
112.2,-0.18,
112.22,-0.288,
112.24,-0.396,
112.26,-0.504,
112.28,-0.576,
112.3,-0.684,
112.32,-0.792,
112.34,-0.864,
112.36,-0.936,
112.38,-1.044,
112.4,-1.116,
112.42,-1.188,
112.44,-1.224,
112.46,-1.296,
112.48,-1.332,
112.5,-1.404,
112.52,-1.404,
112.54,-1.44,
112.56,-1.476,
112.58,-1.476,
112.6,-1.512,
112.62,-1.512,
112.64,-1.512,
112.66,-1.476,
112.68,-1.44,
112.7,-1.44,
112.72,-1.404,
112.74,-1.368,
112.76,-1.296,
112.78,-1.26,
112.8,-1.224,
112.82,-1.152,
112.84,-1.08,
112.86,-1.008,
112.88,-0.936,
112.9,-0.864,
112.92,-0.792,
112.94,-0.72,
112.96,-0.612,
112.98,-0.54,
113,-0.432,
113.02,-0.36,
113.04,-0.288,
113.06,-0.18,
113.08,-0.108,
113.1,0,
113.12,0.072,
113.14,0.144,
113.16,0.252,
113.18,0.324,
113.2,0.396,
113.22,0.468,
113.24,0.54,
113.26,0.612,
113.28,0.684,
113.3,0.72,
113.32,0.792,
113.34,0.864,
113.36,0.9,
113.38,0.936,
113.4,0.972,
113.42,1.008,
113.44,1.008,
113.46,1.044,
113.48,1.044,
113.5,1.044,
113.52,1.044,
113.54,1.044,
113.56,1.044,
113.58,1.008,
113.6,0.972,
113.62,0.972,
113.64,0.936,
113.66,0.9,
113.68,0.864,
113.7,0.792,
113.72,0.756,
113.74,0.72,
113.76,0.648,
113.78,0.576,
113.8,0.54,
113.82,0.468,
113.84,0.396,
113.86,0.324,
113.88,0.288,
113.9,0.216,
113.92,0.144,
113.94,0.072,
113.96,0,
113.98,-0.072,
114,-0.144,
114.02,-0.216,
114.04,-0.252,
114.06,-0.324,
114.08,-0.396,
114.1,-0.432,
114.12,-0.504,
114.14,-0.54,
114.16,-0.576,
114.18,-0.648,
114.2,-0.684,
114.22,-0.72,
114.24,-0.756,
114.26,-0.792,
114.28,-0.792,
114.3,-0.828,
114.32,-0.828,
114.34,-0.864,
114.36,-0.864,
114.38,-0.864,
114.4,-0.864,
114.42,-0.864,
114.44,-0.864,
114.46,-0.828,
114.48,-0.828,
114.5,-0.792,
114.52,-0.756,
114.54,-0.756,
114.56,-0.72,
114.58,-0.684,
114.6,-0.648,
114.62,-0.612,
114.64,-0.576,
114.66,-0.54,
114.68,-0.504,
114.7,-0.432,
114.72,-0.396,
114.74,-0.36,
114.76,-0.288,
114.78,-0.252,
114.8,-0.216,
114.82,-0.144,
114.84,-0.108,
114.86,-0.072,
114.88,-0.036,
114.9,0,
114.92,0.072,
114.94,0.108,
114.96,0.144,
114.98,0.18,
115,0.216,
115.02,0.252,
115.04,0.288,
115.06,0.324,
115.08,0.324,
115.1,0.36,
115.12,0.36,
115.14,0.396,
115.16,0.432,
115.18,0.432,
115.2,0.432,
115.22,0.432,
115.24,0.432,
115.26,0.432,
115.28,0.432,
115.3,0.432,
115.32,0.432,
115.34,0.432,
115.36,0.396,
115.38,0.396,
115.4,0.36,
115.42,0.36,
115.44,0.324,
115.46,0.324,
115.48,0.288,
115.5,0.252,
115.52,0.252,
115.54,0.216,
115.56,0.18,
115.58,0.144,
115.6,0.144,
115.62,0.108,
115.64,0.072,
115.66,0.036,
115.68,0.036,
115.7,0,
115.72,-0.036,
115.74,-0.072,
115.76,-0.072,
115.78,-0.108,
115.8,-0.144,
115.82,-0.144,
115.84,-0.18,
115.86,-0.216,
115.88,-0.216,
115.9,-0.216,
115.92,-0.252,
115.94,-0.252,
115.96,-0.252,
115.98,-0.288,
116,-0.288,
116.02,-0.288,
116.04,-0.288,
116.06,-0.288,
116.08,-0.288,
116.1,-0.288,
116.12,-0.288,
116.14,-0.288,
116.16,-0.288,
116.18,-0.288,
116.2,-0.288,
116.22,-0.252,
116.24,-0.252,
116.26,-0.252,
116.28,-0.252,
116.3,-0.216,
116.32,-0.216,
116.34,-0.216,
116.36,-0.18,
116.38,-0.18,
116.4,-0.144,
116.42,-0.144,
116.44,-0.144,
116.46,-0.144,
116.48,-0.108,
116.5,-0.108,
116.52,-0.108,
116.54,-0.072,
116.56,-0.072,
116.58,-0.072,
116.6,-0.072,
116.62,-0.036,
116.64,-0.036,
116.66,-0.036,
116.68,-0.036,
116.7,-0.036,
116.72,-0.036,
116.74,-0.036,
116.76,-0.036,
116.78,-0.036,
116.8,-0.036,
116.82,-0.036,
116.84,-0.036,
116.86,-0.036,
116.88,-0.036,
116.9,-0.036,
116.92,-0.036,
116.94,-0.036,
116.96,-0.036,
116.98,-0.036,
117,-0.036,
117.02,-0.036,
117.04,-0.036,
117.06,-0.036,
117.08,-0.036,
117.1,-0.072,
117.12,-0.072,
117.14,-0.072,
117.16,-0.072,
117.18,-0.072,
117.2,-0.072,
117.22,-0.072,
117.24,-0.072,
117.26,-0.072,
117.28,-0.072,
117.3,-0.072,
117.32,-0.072,
117.34,-0.072,
117.36,-0.072,
117.38,-0.072,
117.4,-0.072,
117.42,-0.072,
117.44,-0.072,
117.46,-0.072,
117.48,-0.072,
117.5,-0.072,
117.52,-0.072,
117.54,-0.072,
117.56,-0.072,
117.58,-0.072,
117.6,-0.072,
117.62,-0.072,
117.64,-0.072,
117.66,-0.072,
117.68,-0.072,
117.7,-0.072,
117.72,-0.072,
117.74,-0.072,
117.76,-0.072,
117.78,-0.072,
117.8,-0.072,
117.82,-0.072,
117.84,-0.072,
117.86,-0.072,
117.88,-0.072,
117.9,-0.072,
117.92,-0.072,
117.94,-0.072,
117.96,-0.072,
117.98,-0.072,
118,-0.072,
118.02,-0.072,
118.04,-0.072,
118.06,-0.072,
118.08,-0.072,
118.1,-0.072,
118.12,-0.072,
118.14,-0.072,
118.16,-0.072,
118.18,-0.072,
118.2,-0.072,
118.22,-0.072,
118.24,-0.072,
118.26,-0.072,
118.28,-0.072,
118.3,-0.072,
118.32,-0.072,
118.34,-0.072,
118.36,-0.072,
118.38,-0.072,
118.4,-0.072,
118.42,-0.072,
118.44,-0.072,
118.46,-0.072,
118.48,-0.072,
118.5,-0.072,
118.52,-0.072,
118.54,-0.072,
118.56,-0.072,
118.58,-0.072,
118.6,-0.072,
118.62,-0.072,
118.64,-0.072,
118.66,-0.072,
118.68,-0.072,
118.7,-0.072,
118.72,-0.072,
118.74,-0.072,
118.76,-0.072,
118.78,-0.072,
118.8,-0.072,
118.82,-0.072,
118.84,-0.072,
118.86,-0.072,
118.88,-0.072,
118.9,-0.072,
118.92,-0.072,
118.94,-0.072,
118.96,-0.072,
118.98,-0.036,
119,-0.036,
119.02,-0.036,
119.04,-0.036,
119.06,-0.036,
119.08,-0.036,
119.1,-0.036,
119.12,-0.036,
119.14,-0.036,
119.16,-0.036,
119.18,-0.036,
119.2,-0.036,
119.22,-0.036,
119.24,-0.036,
119.26,-0.036,
119.28,-0.036,
119.3,-0.036,
119.32,-0.036,
119.34,-0.036,
119.36,-0.036,
119.38,-0.036,
119.4,-0.036,
119.42,-0.036,
119.44,-0.036,
119.46,-0.036,
119.48,-0.072,
119.5,-0.036,
119.52,-0.072,
119.54,-0.072,
119.56,-0.036,
119.58,-0.072,
119.6,-0.036,
119.62,-0.036,
119.64,-0.072,
119.66,-0.036,
119.68,-0.036,
119.7,-0.072,
119.72,-0.036,
119.74,-0.036,
119.76,-0.072,
119.78,-0.036,
119.8,-0.036,
119.82,-0.072,
119.84,-0.036,
119.86,-0.036,
119.88,-0.036,
119.9,-0.036,
119.92,-0.036,
119.94,-0.036,
119.96,-0.036,
119.98,-0.036,
120,-0.036,
120.02,-0.036,
120.04,-0.036,
120.06,-0.036,
120.08,-0.036,
120.1,-0.036,
120.12,-0.036,
120.14,-0.036,
120.16,-0.036,
120.18,-0.036,
120.2,-0.036,
120.22,-0.036,
120.24,-0.036,
120.26,-0.036,
120.28,-0.036,
120.3,-0.036,
120.32,-0.036,
120.34,-0.036,
120.36,-0.036,
120.38,-0.036,
120.4,-0.036,
120.42,-0.036,
120.44,-0.036,
120.46,-0.036,
120.48,-0.036,
120.5,-0.036,
120.52,-0.036,
120.54,-0.036,
120.56,-0.036,
120.58,-0.036,
120.6,-0.036,
120.62,-0.036,
120.64,-0.036,
120.66,-0.036,
120.68,-0.036,
120.7,-0.036,
120.72,-0.036,
120.74,-0.036,
120.76,-0.036,
120.78,-0.036,
120.8,-0.036,
120.82,-0.036,
120.84,-0.036,
120.86,-0.036,
120.88,-0.036,
120.9,-0.036,
120.92,-0.036,
120.94,-0.036,
120.96,-0.036,
120.98,-0.036,
121,-0.036,
121.02,-0.036,
121.04,-0.036,
121.06,-0.036,
121.08,-0.036,
121.1,-0.036,
121.12,-0.036,
121.14,-0.036,
121.16,-0.036,
121.18,-0.036,
121.2,-0.036,
121.22,-0.036,
121.24,-0.036,
121.26,-0.036,
121.28,-0.036,
121.3,-0.036,
121.32,-0.036,
121.34,-0.036,
121.36,-0.036,
121.38,-0.036,
121.4,-0.036,
121.42,-0.036,
121.44,-0.036,
121.46,-0.036,
121.48,-0.036,
121.5,-0.036,
121.52,-0.036,
121.54,-0.036,
121.56,-0.036,
121.58,-0.036,
121.6,-0.036,
121.62,-0.036,
121.64,-0.036,
121.66,-0.036,
121.68,-0.036,
121.7,-0.036,
121.72,-0.036,
121.74,-0.036,
121.76,-0.036,
121.78,-0.036,
121.8,-0.036,
121.82,-0.036,
121.84,-0.036,
121.86,-0.036,
121.88,-0.036,
121.9,-0.036,
121.92,-0.036,
121.94,-0.036,
121.96,-0.036,
121.98,-0.036,
122,-0.036,
122.02,-0.036,
122.04,-0.036,
122.06,-0.036,
122.08,-0.036,
122.1,-0.036,
122.12,-0.036,
122.14,-0.036,
122.16,-0.036,
122.18,-0.036,
122.2,-0.036,
122.22,-0.036,
122.24,-0.036,
122.26,-0.036,
122.28,-0.036,
122.3,-0.036,
122.32,-0.036,
122.34,-0.036,
122.36,-0.036,
122.38,-0.036,
122.4,-0.036,
122.42,-0.036,
122.44,-0.036,
122.46,-0.036,
122.48,-0.036,
122.5,-0.036,
122.52,-0.036,
122.54,-0.036,
122.56,-0.036,
122.58,-0.036,
122.6,-0.036,
122.62,-0.036,
122.64,-0.036,
122.66,-0.036,
122.68,-0.036,
122.7,-0.036,
122.72,-0.036,
122.74,-0.036,
122.76,-0.036,
122.78,-0.036,
122.8,-0.036,
122.82,-0.036,
122.84,-0.036,
122.86,-0.036,
122.88,-0.036,
122.9,-0.036,
122.92,-0.036,
122.94,-0.036,
122.96,-0.036,
122.98,-0.036,
123,-0.036,
123.02,-0.036,
123.04,-0.036,
123.06,-0.036,
123.08,-0.036,
123.1,-0.036,
123.12,-0.036,
123.14,-0.036,
123.16,-0.036,
123.18,-0.036,
123.2,-0.036,
123.22,-0.036,
123.24,-0.036,
