Channels,1,
Samples,4753,
Date,3/6/2015,
Time,12:03:58,
Y_Unit_Label,Angle (deg),
X_Dimension,Time (s),
X0,03:58.7,
Delta_X,0.02,
***End_of_Header***,,
X_Value,03/06/2015 12:03:55 PM - Angular - Dev1_ctr0,Comment
0,0,
0.02,0,
0.04,0,
0.06,0,
0.08,0,
0.1,0,
0.12,0,
0.14,0,
0.16,0,
0.18,0,
0.2,0,
0.22,0,
0.24,0,
0.26,0,
0.28,0,
0.3,0,
0.32,0,
0.34,0,
0.36,0,
0.38,0,
0.4,0,
0.42,0,
0.44,0,
0.46,0,
0.48,0,
0.5,0,
0.52,0,
0.54,0,
0.56,0,
0.58,0,
0.6,0,
0.62,0,
0.64,0,
0.66,0,
0.68,0,
0.7,0,
0.72,0,
0.74,0,
0.76,0,
0.78,0,
0.8,0,
0.82,0,
0.84,0,
0.86,0,
0.88,0,
0.9,0,
0.92,0,
0.94,0,
0.96,0,
0.98,0,
1,0,
1.02,0,
1.04,0,
1.06,0,
1.08,0,
1.1,0,
1.12,0,
1.14,0,
1.16,0,
1.18,0,
1.2,0,
1.22,0,
1.24,0,
1.26,0,
1.28,0,
1.3,0,
1.32,0,
1.34,0,
1.36,0,
1.38,0,
1.4,0,
1.42,0,
1.44,0,
1.46,0,
1.48,0,
1.5,0,
1.52,0,
1.54,0,
1.56,0,
1.58,0,
1.6,0,
1.62,0,
1.64,0,
1.66,0,
1.68,0,
1.7,0,
1.72,0,
1.74,0,
1.76,0,
1.78,0,
1.8,0,
1.82,0,
1.84,0,
1.86,0,
1.88,0,
1.9,0,
1.92,0,
1.94,0,
1.96,0,
1.98,0,
2,0,
2.02,0,
2.04,0,
2.06,0,
2.08,0,
2.1,0,
2.12,0,
2.14,0,
2.16,0,
2.18,0,
2.2,0,
2.22,0,
2.24,0,
2.26,0,
2.28,0,
2.3,0,
2.32,0,
2.34,0,
2.36,0,
2.38,0,
2.4,0,
2.42,0.036,
2.44,0.108,
2.46,0.18,
2.48,0.288,
2.5,0.396,
2.52,0.576,
2.54,0.792,
2.56,1.008,
2.58,1.296,
2.6,1.584,
2.62,1.908,
2.64,2.268,
2.66,2.664,
2.68,3.096,
2.7,3.528,
2.72,4.032,
2.74,4.536,
2.76,5.112,
2.78,5.652,
2.8,6.228,
2.82,6.84,
2.84,7.416,
2.86,8.028,
2.88,8.64,
2.9,9.252,
2.92,9.864,
2.94,10.476,
2.96,11.088,
2.98,11.7,
3,12.276,
3.02,12.852,
3.04,13.428,
3.06,13.968,
3.08,14.544,
3.1,15.084,
3.12,15.624,
3.14,16.2,
3.16,16.74,
3.18,17.28,
3.2,17.82,
3.22,18.252,
3.24,18.72,
3.26,19.152,
3.28,19.548,
3.3,19.908,
3.32,20.232,
3.34,20.52,
3.36,20.808,
3.38,21.06,
3.4,21.276,
3.42,21.456,
3.44,21.6,
3.46,21.708,
3.48,21.816,
3.5,21.888,
3.52,21.924,
3.54,21.924,
3.56,21.996,
3.58,22.068,
3.6,22.14,
3.62,22.212,
3.64,22.284,
3.66,22.392,
3.68,22.5,
3.7,22.608,
3.72,22.716,
3.74,22.86,
3.76,23.004,
3.78,23.148,
3.8,23.328,
3.82,23.544,
3.84,23.724,
3.86,23.94,
3.88,24.156,
3.9,24.372,
3.92,24.624,
3.94,24.876,
3.96,25.164,
3.98,25.416,
4,25.704,
4.02,25.956,
4.04,26.172,
4.06,26.388,
4.08,26.604,
4.1,26.784,
4.12,27,
4.14,27.18,
4.16,27.396,
4.18,27.576,
4.2,27.792,
4.22,28.008,
4.24,28.188,
4.26,28.404,
4.28,28.62,
4.3,28.836,
4.32,29.016,
4.34,29.196,
4.36,29.376,
4.38,29.52,
4.4,29.664,
4.42,29.808,
4.44,29.916,
4.46,29.988,
4.48,30.06,
4.5,30.132,
4.52,30.168,
4.54,30.204,
4.56,30.204,
4.58,30.24,
4.6,30.24,
4.62,30.24,
4.64,30.24,
4.66,30.24,
4.68,30.24,
4.7,30.204,
4.72,30.204,
4.74,30.168,
4.76,30.204,
4.78,30.24,
4.8,30.24,
4.82,30.276,
4.84,30.312,
4.86,30.312,
4.88,30.348,
4.9,30.348,
4.92,30.348,
4.94,30.348,
4.96,30.348,
4.98,30.348,
5,30.348,
5.02,30.348,
5.04,30.348,
5.06,30.348,
5.08,30.312,
5.1,30.312,
5.12,30.312,
5.14,30.276,
5.16,30.276,
5.18,30.276,
5.2,30.24,
5.22,30.24,
5.24,30.24,
5.26,30.204,
5.28,30.204,
5.3,30.204,
5.32,30.204,
5.34,30.204,
5.36,30.204,
5.38,30.204,
5.4,30.24,
5.42,30.24,
5.44,30.24,
5.46,30.204,
5.48,30.204,
5.5,30.204,
5.52,30.168,
5.54,30.168,
5.56,30.132,
5.58,30.096,
5.6,30.096,
5.62,30.096,
5.64,30.06,
5.66,30.06,
5.68,30.06,
5.7,30.024,
5.72,30.024,
5.74,30.024,
5.76,30.024,
5.78,30.024,
5.8,30.024,
5.82,30.024,
5.84,30.024,
5.86,30.024,
5.88,30.024,
5.9,30.024,
5.92,30.024,
5.94,30.024,
5.96,30.024,
5.98,30.024,
6,30.024,
6.02,29.988,
6.04,29.988,
6.06,29.988,
6.08,29.952,
6.1,29.952,
6.12,29.952,
6.14,29.916,
6.16,29.916,
6.18,29.88,
6.2,29.88,
6.22,29.88,
6.24,29.88,
6.26,29.88,
6.28,29.88,
6.3,29.88,
6.32,29.88,
6.34,29.916,
6.36,29.916,
6.38,29.952,
6.4,29.988,
6.42,30.024,
6.44,30.024,
6.46,30.06,
6.48,30.096,
6.5,30.132,
6.52,30.168,
6.54,30.168,
6.56,30.204,
6.58,30.204,
6.6,30.204,
6.62,30.24,
6.64,30.24,
6.66,30.24,
6.68,30.24,
6.7,30.24,
6.72,30.24,
6.74,30.24,
6.76,30.204,
6.78,30.204,
6.8,30.204,
6.82,30.204,
6.84,30.204,
6.86,30.204,
6.88,30.204,
6.9,30.204,
6.92,30.24,
6.94,30.24,
6.96,30.276,
6.98,30.312,
7,30.348,
7.02,30.348,
7.04,30.384,
7.06,30.42,
7.08,30.42,
7.1,30.42,
7.12,30.42,
7.14,30.42,
7.16,30.42,
7.18,30.42,
7.2,30.384,
7.22,30.348,
7.24,30.132,
7.26,29.844,
7.28,29.664,
7.3,29.088,
7.32,28.44,
7.34,27.72,
7.36,26.82,
7.38,25.776,
7.4,24.66,
7.42,23.364,
7.44,21.96,
7.46,20.556,
7.48,18.936,
7.5,17.244,
7.52,15.552,
7.54,13.752,
7.56,11.88,
7.58,10.008,
7.6,7.992,
7.62,5.94,
7.64,3.924,
7.66,1.836,
7.68,-0.216,
7.7,-2.304,
7.72,-4.428,
7.74,-6.444,
7.76,-8.424,
7.78,-10.476,
7.8,-12.384,
7.82,-14.184,
7.84,-15.984,
7.86,-17.64,
7.88,-19.224,
7.9,-20.808,
7.92,-22.068,
7.94,-23.4,
7.96,-24.624,
7.98,-25.704,
8,-26.568,
8.02,-27.432,
8.04,-28.152,
8.06,-28.656,
8.08,-29.088,
8.1,-29.34,
8.12,-29.448,
8.14,-29.448,
8.16,-29.304,
8.18,-28.98,
8.2,-28.548,
8.22,-27.972,
8.24,-27.252,
8.26,-26.388,
8.28,-25.38,
8.3,-24.3,
8.32,-23.076,
8.34,-21.78,
8.36,-20.34,
8.38,-18.828,
8.4,-17.208,
8.42,-15.516,
8.44,-13.824,
8.46,-11.952,
8.48,-10.008,
8.5,-8.064,
8.52,-6.048,
8.54,-4.032,
8.56,-2.016,
8.58,0.036,
8.6,2.088,
8.62,4.14,
8.64,6.156,
8.66,8.136,
8.68,10.044,
8.7,11.88,
8.72,13.788,
8.74,15.408,
8.76,17.172,
8.78,18.792,
8.8,20.304,
8.82,21.744,
8.84,23.076,
8.86,24.264,
8.88,25.344,
8.9,26.316,
8.92,27.144,
8.94,27.828,
8.96,28.368,
8.98,28.8,
9,29.088,
9.02,29.232,
9.04,29.232,
9.06,29.088,
9.08,28.8,
9.1,28.332,
9.12,27.792,
9.14,27.072,
9.16,26.244,
9.18,25.272,
9.2,24.192,
9.22,22.968,
9.24,21.708,
9.26,20.304,
9.28,18.684,
9.3,17.172,
9.32,15.444,
9.34,13.68,
9.36,11.88,
9.38,10.008,
9.4,8.1,
9.42,6.156,
9.44,4.176,
9.46,2.16,
9.48,0.216,
9.5,-1.908,
9.52,-3.888,
9.54,-5.868,
9.56,-7.848,
9.58,-9.756,
9.6,-11.664,
9.62,-13.464,
9.64,-15.192,
9.66,-16.776,
9.68,-18.432,
9.7,-19.872,
9.72,-21.276,
9.74,-22.536,
9.76,-23.688,
9.78,-24.768,
9.8,-25.668,
9.82,-26.496,
9.84,-27.144,
9.86,-27.72,
9.88,-28.152,
9.9,-28.44,
9.92,-28.584,
9.94,-28.584,
9.96,-28.44,
9.98,-28.188,
10,-27.756,
10.02,-27.216,
10.04,-26.568,
10.06,-25.74,
10.08,-24.84,
10.1,-23.76,
10.12,-22.608,
10.14,-21.312,
10.16,-20.016,
10.18,-18.504,
10.2,-16.956,
10.22,-15.336,
10.24,-13.752,
10.26,-11.844,
10.28,-10.008,
10.3,-8.208,
10.32,-6.156,
10.34,-4.14,
10.36,-2.232,
10.38,-0.252,
10.4,1.764,
10.42,3.744,
10.44,5.688,
10.46,7.596,
10.48,9.432,
10.5,11.34,
10.52,13.104,
10.54,14.832,
10.56,16.452,
10.58,18.036,
10.6,19.44,
10.62,20.88,
10.64,22.248,
10.66,23.4,
10.68,24.48,
10.7,25.416,
10.72,26.208,
10.74,26.928,
10.76,27.504,
10.78,27.9,
10.8,28.188,
10.82,28.332,
10.84,28.368,
10.86,28.26,
10.88,27.972,
10.9,27.576,
10.92,27.072,
10.94,26.352,
10.96,25.56,
10.98,24.624,
11,23.616,
11.02,22.392,
11.04,21.204,
11.06,19.764,
11.08,18.324,
11.1,16.812,
11.12,15.228,
11.14,13.428,
11.16,11.7,
11.18,9.9,
11.2,8.028,
11.22,6.228,
11.24,4.212,
11.26,2.34,
11.28,0.396,
11.3,-1.656,
11.32,-3.492,
11.34,-5.436,
11.36,-7.344,
11.38,-9.252,
11.4,-11.16,
11.42,-12.888,
11.44,-14.616,
11.46,-16.236,
11.48,-17.712,
11.5,-19.224,
11.52,-20.484,
11.54,-21.744,
11.56,-22.932,
11.58,-23.94,
11.6,-24.84,
11.62,-25.632,
11.64,-26.316,
11.66,-26.856,
11.68,-27.288,
11.7,-27.576,
11.72,-27.72,
11.74,-27.756,
11.76,-27.648,
11.78,-27.396,
11.8,-27,
11.82,-26.496,
11.84,-25.848,
11.86,-25.092,
11.88,-24.192,
11.9,-23.184,
11.92,-22.032,
11.94,-20.844,
11.96,-19.512,
11.98,-18.108,
12,-16.632,
12.02,-15.048,
12.04,-13.428,
12.06,-11.628,
12.08,-9.828,
12.1,-8.064,
12.12,-6.156,
12.14,-4.248,
12.16,-2.376,
12.18,-0.432,
12.2,1.584,
12.22,3.42,
12.24,5.328,
12.26,7.2,
12.28,9.036,
12.3,10.836,
12.32,12.564,
12.34,14.22,
12.36,15.84,
12.38,17.352,
12.4,18.828,
12.42,20.16,
12.44,21.456,
12.46,22.608,
12.48,23.652,
12.5,24.588,
12.52,25.38,
12.54,26.064,
12.56,26.604,
12.58,27.036,
12.6,27.324,
12.62,27.468,
12.64,27.504,
12.66,27.396,
12.68,27.144,
12.7,26.748,
12.72,26.244,
12.74,25.632,
12.76,24.84,
12.78,23.976,
12.8,22.968,
12.82,21.816,
12.84,20.592,
12.86,19.26,
12.88,17.856,
12.9,16.344,
12.92,14.796,
12.94,13.176,
12.96,11.448,
12.98,9.684,
13,7.92,
13.02,6.048,
13.04,4.212,
13.06,2.304,
13.08,0.432,
13.1,-1.512,
13.12,-3.384,
13.14,-5.256,
13.16,-7.128,
13.18,-8.928,
13.2,-10.728,
13.22,-12.456,
13.24,-14.112,
13.26,-15.66,
13.28,-17.172,
13.3,-18.576,
13.32,-19.872,
13.34,-21.096,
13.36,-22.212,
13.38,-23.22,
13.4,-24.084,
13.42,-24.876,
13.44,-25.524,
13.46,-26.064,
13.48,-26.496,
13.5,-26.748,
13.52,-26.892,
13.54,-26.928,
13.56,-26.82,
13.58,-26.568,
13.6,-26.208,
13.62,-25.704,
13.64,-25.056,
13.66,-24.336,
13.68,-23.472,
13.7,-22.464,
13.72,-21.384,
13.74,-20.196,
13.76,-18.936,
13.78,-17.568,
13.8,-16.128,
13.82,-14.616,
13.84,-12.996,
13.86,-11.304,
13.88,-9.576,
13.9,-7.776,
13.92,-5.94,
13.94,-4.104,
13.96,-2.232,
13.98,-0.36,
14,1.512,
14.02,3.384,
14.04,5.256,
14.06,7.056,
14.08,8.82,
14.1,10.584,
14.12,12.276,
14.14,13.896,
14.16,15.444,
14.18,16.92,
14.2,18.288,
14.22,19.62,
14.24,20.844,
14.26,21.96,
14.28,23.004,
14.3,23.904,
14.32,24.66,
14.34,25.344,
14.36,25.848,
14.38,26.244,
14.4,26.532,
14.42,26.676,
14.44,26.676,
14.46,26.568,
14.48,26.316,
14.5,25.92,
14.52,25.416,
14.54,24.804,
14.56,24.048,
14.58,23.184,
14.6,22.176,
14.62,21.096,
14.64,19.908,
14.66,18.612,
14.68,17.208,
14.7,15.768,
14.72,14.256,
14.74,12.672,
14.76,11.016,
14.78,9.288,
14.8,7.56,
14.82,5.796,
14.84,3.96,
14.86,2.124,
14.88,0.288,
14.9,-1.584,
14.92,-3.42,
14.94,-5.22,
14.96,-7.056,
14.98,-8.82,
15,-10.512,
15.02,-12.276,
15.04,-13.824,
15.06,-15.336,
15.08,-16.776,
15.1,-18.144,
15.12,-19.368,
15.14,-20.556,
15.16,-21.636,
15.18,-22.608,
15.2,-23.472,
15.22,-24.192,
15.24,-24.84,
15.26,-25.344,
15.28,-25.704,
15.3,-25.992,
15.32,-26.1,
15.34,-26.136,
15.36,-25.992,
15.38,-25.776,
15.4,-25.38,
15.42,-24.876,
15.44,-24.264,
15.46,-23.508,
15.48,-22.68,
15.5,-21.744,
15.52,-20.628,
15.54,-19.512,
15.56,-18.252,
15.58,-16.92,
15.6,-15.516,
15.62,-14.04,
15.64,-12.456,
15.66,-10.836,
15.68,-9.108,
15.7,-7.38,
15.72,-5.58,
15.74,-3.78,
15.76,-2.016,
15.78,-0.18,
15.8,1.692,
15.82,3.456,
15.84,5.256,
15.86,7.02,
15.88,8.748,
15.9,10.44,
15.92,12.06,
15.94,13.608,
15.96,15.12,
15.98,16.56,
16,17.892,
16.02,19.188,
16.04,20.34,
16.06,21.42,
16.08,22.392,
16.1,23.256,
16.12,24.012,
16.14,24.624,
16.16,25.128,
16.18,25.488,
16.2,25.74,
16.22,25.884,
16.24,25.884,
16.26,25.74,
16.28,25.488,
16.3,25.092,
16.32,24.588,
16.34,23.976,
16.36,23.22,
16.38,22.392,
16.4,21.384,
16.42,20.304,
16.44,19.152,
16.46,17.892,
16.48,16.524,
16.5,15.12,
16.52,13.608,
16.54,12.06,
16.56,10.476,
16.58,8.82,
16.6,7.092,
16.62,5.364,
16.64,3.564,
16.66,1.8,
16.68,0.072,
16.7,-1.8,
16.72,-3.528,
16.74,-5.292,
16.76,-7.056,
16.78,-8.784,
16.8,-10.44,
16.82,-12.06,
16.84,-13.608,
16.86,-15.048,
16.88,-16.452,
16.9,-17.784,
16.92,-19.008,
16.94,-20.124,
16.96,-21.132,
16.98,-22.032,
17,-22.86,
17.02,-23.58,
17.04,-24.156,
17.06,-24.624,
17.08,-24.984,
17.1,-25.236,
17.12,-25.344,
17.14,-25.344,
17.16,-25.2,
17.18,-24.948,
17.2,-24.552,
17.22,-24.048,
17.24,-23.436,
17.26,-22.68,
17.28,-21.852,
17.3,-20.916,
17.32,-19.872,
17.34,-18.72,
17.36,-17.496,
17.38,-16.2,
17.4,-14.832,
17.42,-13.356,
17.44,-11.808,
17.46,-10.224,
17.48,-8.568,
17.5,-6.876,
17.52,-5.112,
17.54,-3.348,
17.56,-1.62,
17.58,0.144,
17.6,1.944,
17.62,3.672,
17.64,5.4,
17.66,7.092,
17.68,8.784,
17.7,10.512,
17.72,11.952,
17.74,13.464,
17.76,14.904,
17.78,16.272,
17.8,17.568,
17.82,18.792,
17.84,19.908,
17.86,20.952,
17.88,21.852,
17.9,22.68,
17.92,23.4,
17.94,23.976,
17.96,24.444,
17.98,24.768,
18,24.984,
18.02,25.092,
18.04,25.056,
18.06,24.912,
18.08,24.66,
18.1,24.228,
18.12,23.76,
18.14,23.112,
18.16,22.356,
18.18,21.528,
18.2,20.52,
18.22,19.476,
18.24,18.324,
18.26,17.1,
18.28,15.804,
18.3,14.4,
18.32,12.924,
18.34,11.412,
18.36,9.864,
18.38,8.244,
18.4,6.552,
18.42,4.86,
18.44,3.132,
18.46,1.44,
18.48,-0.288,
18.5,-2.052,
18.52,-3.78,
18.54,-5.472,
18.56,-7.2,
18.58,-8.856,
18.6,-10.476,
18.62,-11.988,
18.64,-13.464,
18.66,-14.904,
18.68,-16.272,
18.7,-17.532,
18.72,-18.648,
18.74,-19.728,
18.76,-20.7,
18.78,-21.564,
18.8,-22.356,
18.82,-23.004,
18.84,-23.544,
18.86,-23.976,
18.88,-24.3,
18.9,-24.516,
18.92,-24.588,
18.94,-24.552,
18.96,-24.408,
18.98,-24.12,
19,-23.688,
19.02,-23.22,
19.04,-22.572,
19.06,-21.816,
19.08,-21.024,
19.1,-20.052,
19.12,-19.044,
19.14,-17.928,
19.16,-16.704,
19.18,-15.444,
19.2,-14.04,
19.22,-12.6,
19.24,-11.124,
19.26,-9.54,
19.28,-7.92,
19.3,-6.228,
19.32,-4.536,
19.34,-2.88,
19.36,-1.188,
19.38,0.54,
19.4,2.232,
19.42,3.96,
19.44,5.616,
19.46,7.272,
19.48,8.892,
19.5,10.44,
19.52,11.952,
19.54,13.392,
19.56,14.76,
19.58,16.092,
19.6,17.352,
19.62,18.468,
19.64,19.548,
19.66,20.52,
19.68,21.384,
19.7,22.176,
19.72,22.788,
19.74,23.328,
19.76,23.76,
19.78,24.048,
19.8,24.264,
19.82,24.3,
19.84,24.264,
19.86,24.084,
19.88,23.796,
19.9,23.364,
19.92,22.86,
19.94,22.212,
19.96,21.456,
19.98,20.592,
20,19.656,
20.02,18.612,
20.04,17.46,
20.06,16.236,
20.08,14.94,
20.1,13.572,
20.12,12.168,
20.14,10.656,
20.16,9.108,
20.18,7.56,
20.2,5.904,
20.22,4.284,
20.24,2.628,
20.26,0.936,
20.28,-0.756,
20.3,-2.448,
20.32,-4.104,
20.34,-5.76,
20.36,-7.38,
20.38,-8.964,
20.4,-10.512,
20.42,-12.024,
20.44,-13.464,
20.46,-14.796,
20.48,-16.056,
20.5,-17.28,
20.52,-18.396,
20.54,-19.404,
20.56,-20.304,
20.58,-21.132,
20.6,-21.852,
20.62,-22.464,
20.64,-22.968,
20.66,-23.364,
20.68,-23.616,
20.7,-23.796,
20.72,-23.832,
20.74,-23.76,
20.76,-23.58,
20.78,-23.292,
20.8,-22.86,
20.82,-22.32,
20.84,-21.708,
20.86,-20.952,
20.88,-20.124,
20.9,-19.188,
20.92,-18.144,
20.94,-17.064,
20.96,-15.876,
20.98,-14.58,
21,-13.248,
21.02,-11.808,
21.04,-10.332,
21.06,-8.82,
21.08,-7.2,
21.1,-5.58,
21.12,-3.96,
21.14,-2.304,
21.16,-0.648,
21.18,1.008,
21.2,2.7,
21.22,4.32,
21.24,5.94,
21.26,7.524,
21.28,9.072,
21.3,10.584,
21.32,12.024,
21.34,13.392,
21.36,14.688,
21.38,15.948,
21.4,17.136,
21.42,18.216,
21.44,19.224,
21.46,20.124,
21.48,20.952,
21.5,21.672,
21.52,22.248,
21.54,22.752,
21.56,23.112,
21.58,23.364,
21.6,23.508,
21.62,23.544,
21.64,23.472,
21.66,23.256,
21.68,22.932,
21.7,22.5,
21.72,21.96,
21.74,21.312,
21.76,20.52,
21.78,19.656,
21.8,18.684,
21.82,17.64,
21.84,16.524,
21.86,15.336,
21.88,14.076,
21.9,12.744,
21.92,11.34,
21.94,9.864,
21.96,8.352,
21.98,6.84,
22,5.256,
22.02,3.6,
22.04,2.016,
22.06,0.396,
22.08,-1.26,
22.1,-2.916,
22.12,-4.464,
22.14,-6.084,
22.16,-7.668,
22.18,-9.18,
22.2,-10.692,
22.22,-12.096,
22.24,-13.464,
22.26,-14.76,
22.28,-15.984,
22.3,-17.1,
22.32,-18.18,
22.34,-19.116,
22.36,-19.98,
22.38,-20.736,
22.4,-21.384,
22.42,-21.924,
22.44,-22.392,
22.46,-22.752,
22.48,-22.968,
22.5,-23.076,
22.52,-23.112,
22.54,-22.968,
22.56,-22.752,
22.58,-22.428,
22.6,-21.996,
22.62,-21.456,
22.64,-20.808,
22.66,-20.052,
22.68,-19.224,
22.7,-18.252,
22.72,-17.244,
22.74,-16.128,
22.76,-14.94,
22.78,-13.68,
22.8,-12.312,
22.82,-10.944,
22.84,-9.468,
22.86,-7.992,
22.88,-6.408,
22.9,-4.788,
22.92,-3.24,
22.94,-1.656,
22.96,-0.036,
22.98,1.584,
23,3.168,
23.02,4.752,
23.04,6.3,
23.06,7.848,
23.08,9.324,
23.1,10.764,
23.12,12.132,
23.14,13.464,
23.16,14.724,
23.18,15.876,
23.2,16.992,
23.22,18.036,
23.24,18.936,
23.26,19.8,
23.28,20.556,
23.3,21.204,
23.32,21.744,
23.34,22.176,
23.36,22.464,
23.38,22.68,
23.4,22.788,
23.42,22.752,
23.44,22.644,
23.46,22.392,
23.48,22.032,
23.5,21.6,
23.52,20.988,
23.54,20.34,
23.56,19.548,
23.58,18.684,
23.6,17.712,
23.62,16.704,
23.64,15.588,
23.66,14.4,
23.68,13.14,
23.7,11.808,
23.72,10.404,
23.74,9,
23.76,7.524,
23.78,6.012,
23.8,4.392,
23.82,2.916,
23.84,1.332,
23.86,-0.216,
23.88,-1.836,
23.9,-3.42,
23.92,-4.968,
23.94,-6.516,
23.96,-8.028,
23.98,-9.468,
24,-10.908,
24.02,-12.24,
24.04,-13.536,
24.06,-14.76,
24.08,-15.912,
24.1,-16.992,
24.12,-17.964,
24.14,-18.864,
24.16,-19.656,
24.18,-20.34,
24.2,-20.952,
24.22,-21.42,
24.24,-21.816,
24.26,-22.104,
24.28,-22.284,
24.3,-22.356,
24.32,-22.32,
24.34,-22.176,
24.36,-21.924,
24.38,-21.564,
24.4,-21.096,
24.42,-20.52,
24.44,-19.836,
24.46,-19.08,
24.48,-18.252,
24.5,-17.28,
24.52,-16.272,
24.54,-15.12,
24.56,-13.968,
24.58,-12.708,
24.6,-11.376,
24.62,-10.008,
24.64,-8.568,
24.66,-7.092,
24.68,-5.544,
24.7,-4.032,
24.72,-2.52,
24.74,-0.972,
24.76,0.648,
24.78,2.196,
24.8,3.744,
24.82,5.256,
24.84,6.732,
24.86,8.208,
24.88,9.612,
24.9,10.98,
24.92,12.312,
24.94,13.536,
24.96,14.724,
24.98,15.84,
25,16.848,
25.02,17.82,
25.04,18.684,
25.06,19.476,
25.08,20.16,
25.1,20.736,
25.12,21.204,
25.14,21.564,
25.16,21.852,
25.18,21.996,
25.2,22.032,
25.22,21.996,
25.24,21.816,
25.26,21.528,
25.28,21.132,
25.3,20.664,
25.32,20.052,
25.34,19.368,
25.36,18.576,
25.38,17.712,
25.4,16.74,
25.42,15.696,
25.44,14.58,
25.46,13.392,
25.48,12.168,
25.5,10.836,
25.52,9.504,
25.54,8.064,
25.56,6.624,
25.58,5.148,
25.6,3.672,
25.62,2.16,
25.64,0.648,
25.66,-0.936,
25.68,-2.484,
25.7,-3.96,
25.72,-5.472,
25.74,-6.948,
25.76,-8.388,
25.78,-9.792,
25.8,-11.124,
25.82,-12.42,
25.84,-13.644,
25.86,-14.796,
25.88,-15.876,
25.9,-16.884,
25.92,-17.784,
25.94,-18.612,
25.96,-19.368,
25.98,-19.98,
26,-20.484,
26.02,-20.952,
26.04,-21.276,
26.06,-21.492,
26.08,-21.636,
26.1,-21.636,
26.12,-21.564,
26.14,-21.384,
26.16,-21.06,
26.18,-20.664,
26.2,-20.196,
26.22,-19.584,
26.24,-18.9,
26.26,-18.108,
26.28,-17.244,
26.3,-16.272,
26.32,-15.264,
26.34,-14.148,
26.36,-12.96,
26.38,-11.664,
26.4,-10.368,
26.42,-9.036,
26.44,-7.632,
26.46,-6.156,
26.48,-4.68,
26.5,-3.204,
26.52,-1.728,
26.54,-0.18,
26.56,1.332,
26.58,2.844,
26.6,4.284,
26.62,5.76,
26.64,7.2,
26.66,8.604,
26.68,9.972,
26.7,11.268,
26.72,12.492,
26.74,13.644,
26.76,14.796,
26.78,15.804,
26.8,16.776,
26.82,17.676,
26.84,18.432,
26.86,19.152,
26.88,19.764,
26.9,20.268,
26.92,20.7,
26.94,20.988,
26.96,21.204,
26.98,21.312,
27,21.312,
27.02,21.168,
27.04,20.952,
27.06,20.628,
27.08,20.196,
27.1,19.692,
27.12,19.08,
27.14,18.36,
27.16,17.532,
27.18,16.632,
27.2,15.696,
27.22,14.652,
27.24,13.536,
27.26,12.348,
27.28,11.088,
27.3,9.828,
27.32,8.496,
27.34,7.128,
27.36,5.724,
27.38,4.32,
27.4,2.808,
27.42,1.332,
27.44,-0.144,
27.46,-1.62,
27.48,-3.096,
27.5,-4.572,
27.52,-6.012,
27.54,-7.452,
27.56,-8.784,
27.58,-10.152,
27.6,-11.412,
27.62,-12.6,
27.64,-13.788,
27.66,-14.868,
27.68,-15.876,
27.7,-16.776,
27.72,-17.64,
27.74,-18.36,
27.76,-19.044,
27.78,-19.62,
27.8,-20.088,
27.82,-20.448,
27.84,-20.7,
27.86,-20.88,
27.88,-20.952,
27.9,-20.916,
27.92,-20.772,
27.94,-20.52,
27.96,-20.196,
27.98,-19.764,
28,-19.224,
28.02,-18.612,
28.04,-17.892,
28.06,-17.064,
28.08,-16.2,
28.1,-15.228,
28.12,-14.184,
28.14,-13.032,
28.16,-11.88,
28.18,-10.62,
28.2,-9.324,
28.22,-7.992,
28.24,-6.624,
28.26,-5.184,
28.28,-3.744,
28.3,-2.34,
28.32,-0.864,
28.34,0.576,
28.36,2.052,
28.38,3.528,
28.4,4.932,
28.42,6.336,
28.44,7.704,
28.46,9.036,
28.48,10.296,
28.5,11.52,
28.52,12.708,
28.54,13.788,
28.56,14.832,
28.58,15.804,
28.6,16.668,
28.62,17.496,
28.64,18.216,
28.66,18.864,
28.68,19.368,
28.7,19.8,
28.72,20.16,
28.74,20.412,
28.76,20.52,
28.78,20.556,
28.8,20.52,
28.82,20.34,
28.84,20.088,
28.86,19.728,
28.88,19.26,
28.9,18.684,
28.92,18.036,
28.94,17.28,
28.96,16.488,
28.98,15.588,
29,14.58,
29.02,13.536,
29.04,12.456,
29.06,11.268,
29.08,10.044,
29.1,8.784,
29.12,7.488,
29.14,6.12,
29.16,4.716,
29.18,3.312,
29.2,1.872,
29.22,0.468,
29.24,-0.972,
29.26,-2.412,
29.28,-3.816,
29.3,-5.22,
29.32,-6.624,
29.34,-7.956,
29.36,-9.252,
29.38,-10.548,
29.4,-11.7,
29.42,-12.852,
29.44,-13.932,
29.46,-14.94,
29.48,-15.876,
29.5,-16.704,
29.52,-17.46,
29.54,-18.144,
29.56,-18.756,
29.58,-19.224,
29.6,-19.62,
29.62,-19.944,
29.64,-20.124,
29.66,-20.232,
29.68,-20.232,
29.7,-20.16,
29.72,-19.98,
29.74,-19.692,
29.76,-19.332,
29.78,-18.828,
29.8,-18.252,
29.82,-17.604,
29.84,-16.848,
29.86,-16.02,
29.88,-15.084,
29.9,-14.112,
29.92,-13.068,
29.94,-11.952,
29.96,-10.764,
29.98,-9.54,
30,-8.28,
30.02,-6.948,
30.04,-5.544,
30.06,-4.176,
30.08,-2.808,
30.1,-1.404,
30.12,0,
30.14,1.44,
30.16,2.844,
30.18,4.212,
30.2,5.58,
30.22,6.912,
30.24,8.208,
30.26,9.468,
30.28,10.692,
30.3,11.808,
30.32,12.924,
30.34,13.932,
30.36,14.904,
30.38,15.804,
30.4,16.596,
30.42,17.316,
30.44,17.964,
30.46,18.504,
30.48,18.972,
30.5,19.368,
30.52,19.62,
30.54,19.8,
30.56,19.872,
30.58,19.836,
30.6,19.728,
30.62,19.512,
30.64,19.188,
30.66,18.756,
30.68,18.252,
30.7,17.64,
30.72,16.992,
30.74,16.236,
30.76,15.372,
30.78,14.472,
30.8,13.5,
30.82,12.456,
30.84,11.34,
30.86,10.188,
30.88,8.928,
30.9,7.704,
30.92,6.408,
30.94,5.076,
30.96,3.708,
30.98,2.34,
31,0.972,
31.02,-0.432,
31.04,-1.8,
31.06,-3.204,
31.08,-4.536,
31.1,-5.868,
31.12,-7.2,
31.14,-8.496,
31.16,-9.72,
31.18,-10.908,
31.2,-11.988,
31.22,-13.068,
31.24,-14.076,
31.26,-15.012,
31.28,-15.84,
31.3,-16.632,
31.32,-17.28,
31.34,-17.892,
31.36,-18.396,
31.38,-18.828,
31.4,-19.152,
31.42,-19.368,
31.44,-19.512,
31.46,-19.548,
31.48,-19.512,
31.5,-19.368,
31.52,-19.116,
31.54,-18.792,
31.56,-18.36,
31.58,-17.856,
31.6,-17.208,
31.62,-16.524,
31.64,-15.768,
31.66,-14.904,
31.68,-13.968,
31.7,-12.96,
31.72,-11.916,
31.74,-10.8,
31.76,-9.612,
31.78,-8.424,
31.8,-7.128,
31.82,-5.832,
31.84,-4.5,
31.86,-3.168,
31.88,-1.8,
31.9,-0.432,
31.92,0.936,
31.94,2.268,
31.96,3.6,
31.98,4.932,
32,6.264,
32.02,7.524,
32.04,8.748,
32.06,9.936,
32.08,11.052,
32.1,12.132,
32.12,13.14,
32.14,14.076,
32.16,14.976,
32.18,15.768,
32.2,16.488,
32.22,17.136,
32.24,17.712,
32.26,18.18,
32.28,18.576,
32.3,18.864,
32.32,19.044,
32.34,19.152,
32.36,19.152,
32.38,19.08,
32.4,18.9,
32.42,18.612,
32.44,18.252,
32.46,17.784,
32.48,17.244,
32.5,16.632,
32.52,15.912,
32.54,15.12,
32.56,14.256,
32.58,13.356,
32.6,12.348,
32.62,11.304,
32.64,10.188,
32.66,9.036,
32.68,7.884,
32.7,6.552,
32.72,5.328,
32.74,3.996,
32.76,2.664,
32.78,1.368,
32.8,0,
32.82,-1.332,
32.84,-2.664,
32.86,-3.96,
32.88,-5.22,
32.9,-6.552,
32.92,-7.812,
32.94,-9,
32.96,-10.152,
32.98,-11.268,
33,-12.312,
33.02,-13.284,
33.04,-14.184,
33.06,-15.048,
33.08,-15.804,
33.1,-16.488,
33.12,-17.1,
33.14,-17.64,
33.16,-18.072,
33.18,-18.396,
33.2,-18.648,
33.22,-18.792,
33.24,-18.864,
33.26,-18.864,
33.28,-18.756,
33.3,-18.54,
33.32,-18.252,
33.34,-17.856,
33.36,-17.352,
33.38,-16.812,
33.4,-16.164,
33.42,-15.48,
33.44,-14.652,
33.46,-13.752,
33.48,-12.816,
33.5,-11.808,
33.52,-10.728,
33.54,-9.612,
33.56,-8.424,
33.58,-7.272,
33.6,-6.012,
33.62,-4.788,
33.64,-3.456,
33.66,-2.124,
33.68,-0.828,
33.7,0.504,
33.72,1.8,
33.74,3.132,
33.76,4.428,
33.78,5.688,
33.8,6.84,
33.82,8.1,
33.84,9.252,
33.86,10.368,
33.88,11.412,
33.9,12.42,
33.92,13.356,
33.94,14.22,
33.96,15.012,
33.98,15.732,
34,16.38,
34.02,16.92,
34.04,17.424,
34.06,17.82,
34.08,18.108,
34.1,18.324,
34.12,18.432,
34.14,18.468,
34.16,18.432,
34.18,18.288,
34.2,18.036,
34.22,17.712,
34.24,17.28,
34.26,16.812,
34.28,16.236,
34.3,15.552,
34.32,14.796,
34.34,14.004,
34.36,13.104,
34.38,12.204,
34.4,11.232,
34.42,10.116,
34.44,9.072,
34.46,7.884,
34.48,6.696,
34.5,5.508,
34.52,4.248,
34.54,2.952,
34.56,1.728,
34.58,0.396,
34.6,-0.936,
34.62,-2.232,
34.64,-3.492,
34.66,-4.752,
34.68,-5.94,
34.7,-7.2,
34.72,-8.388,
34.74,-9.468,
34.76,-10.548,
34.78,-11.592,
34.8,-12.528,
34.82,-13.428,
34.84,-14.292,
34.86,-15.048,
34.88,-15.768,
34.9,-16.344,
34.92,-16.848,
34.94,-17.28,
34.96,-17.676,
34.98,-17.928,
35,-18.108,
35.02,-18.18,
35.04,-18.216,
35.06,-18.108,
35.08,-17.928,
35.1,-17.676,
35.12,-17.316,
35.14,-16.884,
35.16,-16.344,
35.18,-15.768,
35.2,-15.048,
35.22,-14.292,
35.24,-13.5,
35.26,-12.6,
35.28,-11.664,
35.3,-10.656,
35.32,-9.576,
35.34,-8.424,
35.36,-7.308,
35.38,-6.12,
35.4,-4.824,
35.42,-3.672,
35.44,-2.412,
35.46,-1.08,
35.48,0.108,
35.5,1.404,
35.52,2.664,
35.54,3.888,
35.56,5.148,
35.58,6.372,
35.6,7.56,
35.62,8.64,
35.64,9.72,
35.66,10.728,
35.68,11.736,
35.7,12.636,
35.72,13.464,
35.74,14.256,
35.76,14.976,
35.78,15.624,
35.8,16.2,
35.82,16.668,
35.84,17.064,
35.86,17.388,
35.88,17.604,
35.9,17.748,
35.92,17.784,
35.94,17.784,
35.96,17.64,
35.98,17.424,
36,17.136,
36.02,16.776,
36.04,16.308,
36.06,15.768,
36.08,15.156,
36.1,14.472,
36.12,13.68,
36.14,12.852,
36.16,11.952,
36.18,11.016,
36.2,10.008,
36.22,8.964,
36.24,7.884,
36.26,6.732,
36.28,5.544,
36.3,4.356,
36.32,3.132,
36.34,1.908,
36.36,0.684,
36.38,-0.576,
36.4,-1.836,
36.42,-3.06,
36.44,-4.284,
36.46,-5.472,
36.48,-6.66,
36.5,-7.812,
36.52,-8.892,
36.54,-9.972,
36.56,-10.98,
36.58,-11.88,
36.6,-12.78,
36.62,-13.608,
36.64,-14.364,
36.66,-15.048,
36.68,-15.624,
36.7,-16.164,
36.72,-16.596,
36.74,-16.956,
36.76,-17.208,
36.78,-17.424,
36.8,-17.496,
36.82,-17.532,
36.84,-17.46,
36.86,-17.316,
36.88,-17.064,
36.9,-16.74,
36.92,-16.344,
36.94,-15.84,
36.96,-15.3,
36.98,-14.652,
37,-13.932,
37.02,-13.14,
37.04,-12.276,
37.06,-11.376,
37.08,-10.44,
37.1,-9.432,
37.12,-8.352,
37.14,-7.236,
37.16,-6.084,
37.18,-4.896,
37.2,-3.744,
37.22,-2.52,
37.24,-1.296,
37.26,-0.072,
37.28,1.152,
37.3,2.376,
37.32,3.564,
37.34,4.752,
37.36,5.904,
37.38,7.056,
37.4,8.136,
37.42,9.216,
37.44,10.188,
37.46,11.124,
37.48,12.024,
37.5,12.852,
37.52,13.608,
37.54,14.328,
37.56,14.94,
37.58,15.48,
37.6,15.984,
37.62,16.38,
37.64,16.704,
37.66,16.92,
37.68,17.064,
37.7,17.136,
37.72,17.136,
37.74,17.028,
37.76,16.812,
37.78,16.56,
37.8,16.2,
37.82,15.768,
37.84,15.264,
37.86,14.688,
37.88,14.004,
37.9,13.284,
37.92,12.492,
37.94,11.628,
37.96,10.728,
37.98,9.756,
38,8.784,
38.02,7.704,
38.04,6.624,
38.06,5.508,
38.08,4.356,
38.1,3.168,
38.12,1.98,
38.14,0.792,
38.16,-0.396,
38.18,-1.62,
38.2,-2.772,
38.22,-3.96,
38.24,-5.112,
38.26,-6.264,
38.28,-7.38,
38.3,-8.424,
38.32,-9.432,
38.34,-10.404,
38.36,-11.34,
38.38,-12.204,
38.4,-12.996,
38.42,-13.716,
38.44,-14.4,
38.46,-14.976,
38.48,-15.48,
38.5,-15.912,
38.52,-16.272,
38.54,-16.56,
38.56,-16.74,
38.58,-16.848,
38.6,-16.884,
38.62,-16.848,
38.64,-16.704,
38.66,-16.452,
38.68,-16.164,
38.7,-15.768,
38.72,-15.336,
38.74,-14.76,
38.76,-14.184,
38.78,-13.464,
38.8,-12.744,
38.82,-11.952,
38.84,-11.052,
38.86,-10.152,
38.88,-9.144,
38.9,-8.136,
38.92,-7.092,
38.94,-5.976,
38.96,-4.86,
38.98,-3.708,
39,-2.556,
39.02,-1.368,
39.04,-0.18,
39.06,1.008,
39.08,2.16,
39.1,3.312,
39.12,4.464,
39.14,5.58,
39.16,6.66,
39.18,7.704,
39.2,8.748,
39.22,9.72,
39.24,10.62,
39.26,11.484,
39.28,12.312,
39.3,13.032,
39.32,13.716,
39.34,14.328,
39.36,14.868,
39.38,15.336,
39.4,15.696,
39.42,16.02,
39.44,16.272,
39.46,16.416,
39.48,16.488,
39.5,16.488,
39.52,16.38,
39.54,16.2,
39.56,15.948,
39.58,15.624,
39.6,15.192,
39.62,14.724,
39.64,14.148,
39.66,13.5,
39.68,12.816,
39.7,12.096,
39.72,11.268,
39.74,10.404,
39.76,9.468,
39.78,8.532,
39.8,7.488,
39.82,6.48,
39.84,5.4,
39.86,4.248,
39.88,3.132,
39.9,1.98,
39.92,0.864,
39.94,-0.288,
39.96,-1.44,
39.98,-2.592,
40,-3.744,
40.02,-4.86,
40.04,-5.94,
40.06,-7.02,
40.08,-8.064,
40.1,-9,
40.12,-9.972,
40.14,-10.836,
40.16,-11.664,
40.18,-12.456,
40.2,-13.14,
40.22,-13.788,
40.24,-14.364,
40.26,-14.868,
40.28,-15.264,
40.3,-15.624,
40.32,-15.912,
40.34,-16.092,
40.36,-16.2,
40.38,-16.2,
40.4,-16.2,
40.42,-16.056,
40.44,-15.84,
40.46,-15.552,
40.48,-15.192,
40.5,-14.76,
40.52,-14.256,
40.54,-13.644,
40.56,-12.96,
40.58,-12.276,
40.6,-11.52,
40.62,-10.656,
40.64,-9.792,
40.66,-8.856,
40.68,-7.848,
40.7,-6.84,
40.72,-5.796,
40.74,-4.68,
40.76,-3.6,
40.78,-2.484,
40.8,-1.368,
40.82,-0.252,
40.84,0.9,
40.86,2.052,
40.88,3.132,
40.9,4.248,
40.92,5.328,
40.94,6.372,
40.96,7.38,
40.98,8.352,
41,9.288,
41.02,10.188,
41.04,11.052,
41.06,11.808,
41.08,12.492,
41.1,13.176,
41.12,13.752,
41.14,14.256,
41.16,14.724,
41.18,15.084,
41.2,15.372,
41.22,15.624,
41.24,15.768,
41.26,15.804,
41.28,15.804,
41.3,15.732,
41.32,15.552,
41.34,15.336,
41.36,15.012,
41.38,14.616,
41.4,14.148,
41.42,13.608,
41.44,12.996,
41.46,12.348,
41.48,11.628,
41.5,10.836,
41.52,10.008,
41.54,9.144,
41.56,8.172,
41.58,7.236,
41.6,6.228,
41.62,5.184,
41.64,4.14,
41.66,3.024,
41.68,1.944,
41.7,0.864,
41.72,-0.252,
41.74,-1.368,
41.76,-2.484,
41.78,-3.564,
41.8,-4.644,
41.82,-5.688,
41.84,-6.696,
41.86,-7.704,
41.88,-8.64,
41.9,-9.54,
41.92,-10.404,
41.94,-11.196,
41.96,-11.952,
41.98,-12.6,
42,-13.248,
42.02,-13.788,
42.04,-14.256,
42.06,-14.688,
42.08,-15.012,
42.1,-15.264,
42.12,-15.444,
42.14,-15.552,
42.16,-15.588,
42.18,-15.552,
42.2,-15.408,
42.22,-15.228,
42.24,-14.94,
42.26,-14.58,
42.28,-14.148,
42.3,-13.644,
42.32,-13.104,
42.34,-12.456,
42.36,-11.772,
42.38,-11.016,
42.4,-10.224,
42.42,-9.396,
42.44,-8.496,
42.46,-7.56,
42.48,-6.552,
42.5,-5.544,
42.52,-4.5,
42.54,-3.456,
42.56,-2.376,
42.58,-1.296,
42.6,-0.216,
42.62,0.864,
42.64,1.98,
42.66,3.024,
42.68,4.104,
42.7,5.112,
42.72,6.12,
42.74,7.128,
42.76,8.028,
42.78,8.964,
42.8,9.792,
42.82,10.584,
42.84,11.34,
42.86,12.024,
42.88,12.636,
42.9,13.212,
42.92,13.68,
42.94,14.112,
42.96,14.472,
42.98,14.76,
43,14.976,
43.02,15.12,
43.04,15.192,
43.06,15.192,
43.08,15.084,
43.1,14.94,
43.12,14.688,
43.14,14.4,
43.16,14.004,
43.18,13.572,
43.2,13.032,
43.22,12.456,
43.24,11.808,
43.26,11.124,
43.28,10.368,
43.3,9.576,
43.32,8.748,
43.34,7.848,
43.36,6.912,
43.38,5.94,
43.4,4.968,
43.42,3.924,
43.44,2.88,
43.46,1.836,
43.48,0.792,
43.5,-0.288,
43.52,-1.368,
43.54,-2.448,
43.56,-3.456,
43.58,-4.464,
43.6,-5.472,
43.62,-6.48,
43.64,-7.416,
43.66,-8.352,
43.68,-9.18,
43.7,-10.008,
43.72,-10.764,
43.74,-11.484,
43.76,-12.132,
43.78,-12.708,
43.8,-13.248,
43.82,-13.716,
43.84,-14.076,
43.86,-14.4,
43.88,-14.652,
43.9,-14.832,
43.92,-14.904,
43.94,-14.94,
43.96,-14.904,
43.98,-14.76,
44,-14.58,
44.02,-14.292,
44.04,-13.968,
44.06,-13.572,
44.08,-13.068,
44.1,-12.528,
44.12,-11.916,
44.14,-11.268,
44.16,-10.548,
44.18,-9.792,
44.2,-8.964,
44.22,-8.1,
44.24,-7.164,
44.26,-6.228,
44.28,-5.256,
44.3,-4.248,
44.32,-3.24,
44.34,-2.232,
44.36,-1.188,
44.38,-0.144,
44.4,0.9,
44.42,1.944,
44.44,2.952,
44.46,3.96,
44.48,4.968,
44.5,5.94,
44.52,6.84,
44.54,7.776,
44.56,8.604,
44.58,9.432,
44.6,10.188,
44.62,10.908,
44.64,11.592,
44.66,12.168,
44.68,12.672,
44.7,13.176,
44.72,13.572,
44.74,13.896,
44.76,14.184,
44.78,14.364,
44.8,14.508,
44.82,14.544,
44.84,14.544,
44.86,14.472,
44.88,14.292,
44.9,14.076,
44.92,13.752,
44.94,13.392,
44.96,12.96,
44.98,12.456,
45,11.916,
45.02,11.304,
45.04,10.62,
45.06,9.9,
45.08,9.144,
45.1,8.28,
45.12,7.452,
45.14,6.552,
45.16,5.616,
45.18,4.68,
45.2,3.708,
45.22,2.7,
45.24,1.692,
45.26,0.684,
45.28,-0.36,
45.3,-1.368,
45.32,-2.376,
45.34,-3.384,
45.36,-4.356,
45.38,-5.328,
45.4,-6.264,
45.42,-7.164,
45.44,-8.028,
45.46,-8.856,
45.48,-9.648,
45.5,-10.368,
45.52,-11.052,
45.54,-11.664,
45.56,-12.204,
45.58,-12.708,
45.6,-13.14,
45.62,-13.536,
45.64,-13.824,
45.66,-14.04,
45.68,-14.184,
45.7,-14.292,
45.72,-14.292,
45.74,-14.256,
45.76,-14.148,
45.78,-13.932,
45.8,-13.68,
45.82,-13.356,
45.84,-12.96,
45.86,-12.492,
45.88,-11.952,
45.9,-11.376,
45.92,-10.728,
45.94,-10.044,
45.96,-9.288,
45.98,-8.496,
46,-7.668,
46.02,-6.804,
46.04,-5.904,
46.06,-4.968,
46.08,-3.996,
46.1,-3.024,
46.12,-2.052,
46.14,-1.044,
46.16,-0.072,
46.18,0.972,
46.2,1.944,
46.22,2.916,
46.24,3.888,
46.26,4.824,
46.28,5.76,
46.3,6.624,
46.32,7.488,
46.34,8.316,
46.36,9.108,
46.38,9.828,
46.4,10.512,
46.42,11.124,
46.44,11.7,
46.46,12.204,
46.48,12.636,
46.5,13.032,
46.52,13.32,
46.54,13.572,
46.56,13.752,
46.58,13.896,
46.6,13.932,
46.62,13.932,
46.64,13.824,
46.66,13.68,
46.68,13.428,
46.7,13.14,
46.72,12.78,
46.74,12.348,
46.76,11.88,
46.78,11.34,
46.8,10.728,
46.82,10.116,
46.84,9.396,
46.86,8.676,
46.88,7.884,
46.9,7.02,
46.92,6.192,
46.94,5.292,
46.96,4.392,
46.98,3.42,
47,2.484,
47.02,1.512,
47.04,0.54,
47.06,-0.432,
47.08,-1.404,
47.1,-2.376,
47.12,-3.348,
47.14,-4.248,
47.16,-5.184,
47.18,-6.084,
47.2,-6.948,
47.22,-7.776,
47.24,-8.568,
47.26,-9.288,
47.28,-10.008,
47.3,-10.62,
47.32,-11.196,
47.34,-11.736,
47.36,-12.204,
47.38,-12.6,
47.4,-12.96,
47.42,-13.248,
47.44,-13.464,
47.46,-13.608,
47.48,-13.68,
47.5,-13.68,
47.52,-13.644,
47.54,-13.5,
47.56,-13.32,
47.58,-13.032,
47.6,-12.708,
47.62,-12.312,
47.64,-11.88,
47.66,-11.376,
47.68,-10.8,
47.7,-10.188,
47.72,-9.504,
47.74,-8.784,
47.76,-8.064,
47.78,-7.236,
47.8,-6.408,
47.82,-5.544,
47.84,-4.608,
47.86,-3.708,
47.88,-2.772,
47.9,-1.872,
47.92,-0.9,
47.94,0.072,
47.96,1.008,
47.98,1.98,
48,2.916,
48.02,3.816,
48.04,4.716,
48.06,5.58,
48.08,6.444,
48.1,7.272,
48.12,8.028,
48.14,8.784,
48.16,9.468,
48.18,10.116,
48.2,10.692,
48.22,11.232,
48.24,11.736,
48.26,12.132,
48.28,12.492,
48.3,12.78,
48.32,13.032,
48.34,13.176,
48.36,13.284,
48.38,13.32,
48.4,13.284,
48.42,13.176,
48.44,13.032,
48.46,12.816,
48.48,12.528,
48.5,12.168,
48.52,11.736,
48.54,11.268,
48.56,10.764,
48.58,10.188,
48.6,9.54,
48.62,8.892,
48.64,8.172,
48.66,7.416,
48.68,6.624,
48.7,5.796,
48.72,4.932,
48.74,4.032,
48.76,3.132,
48.78,2.232,
48.8,1.296,
48.82,0.396,
48.84,-0.54,
48.86,-1.476,
48.88,-2.376,
48.9,-3.312,
48.92,-4.212,
48.94,-5.076,
48.96,-5.94,
48.98,-6.768,
49,-7.524,
49.02,-8.28,
49.04,-8.964,
49.06,-9.612,
49.08,-10.224,
49.1,-10.8,
49.12,-11.304,
49.14,-11.736,
49.16,-12.096,
49.18,-12.42,
49.2,-12.672,
49.22,-12.852,
49.24,-12.996,
49.26,-13.068,
49.28,-13.068,
49.3,-12.996,
49.32,-12.852,
49.34,-12.672,
49.36,-12.42,
49.38,-12.096,
49.4,-11.7,
49.42,-11.268,
49.44,-10.764,
49.46,-10.224,
49.48,-9.612,
49.5,-8.964,
49.52,-8.28,
49.54,-7.56,
49.56,-6.768,
49.58,-5.976,
49.6,-5.112,
49.62,-4.284,
49.64,-3.384,
49.66,-2.52,
49.68,-1.62,
49.7,-0.72,
49.72,0.216,
49.74,1.116,
49.76,2.016,
49.78,2.916,
49.8,3.816,
49.82,4.644,
49.84,5.472,
49.86,6.3,
49.88,7.056,
49.9,7.776,
49.92,8.496,
49.94,9.144,
49.96,9.756,
49.98,10.296,
50,10.8,
50.02,11.268,
50.04,11.664,
50.06,11.988,
50.08,12.24,
50.1,12.456,
50.12,12.6,
50.14,12.672,
50.16,12.708,
50.18,12.672,
50.2,12.564,
50.22,12.384,
50.24,12.168,
50.26,11.88,
50.28,11.52,
50.3,11.124,
50.32,10.692,
50.34,10.152,
50.36,9.612,
50.38,9,
50.4,8.352,
50.42,7.668,
50.44,6.948,
50.46,6.156,
50.48,5.364,
50.5,4.536,
50.52,3.708,
50.54,2.844,
50.56,1.98,
50.58,1.116,
50.6,0.216,
50.62,-0.684,
50.64,-1.548,
50.66,-2.448,
50.68,-3.312,
50.7,-4.14,
50.72,-5.004,
50.74,-5.796,
50.76,-6.552,
50.78,-7.308,
50.8,-7.992,
50.82,-8.676,
50.84,-9.288,
50.86,-9.864,
50.88,-10.368,
50.9,-10.836,
50.92,-11.232,
50.94,-11.592,
50.96,-11.88,
50.98,-12.132,
51,-12.276,
51.02,-12.384,
51.04,-12.456,
51.06,-12.456,
51.08,-12.384,
51.1,-12.24,
51.12,-12.024,
51.14,-11.772,
51.16,-11.448,
51.18,-11.088,
51.2,-10.656,
51.22,-10.152,
51.24,-9.648,
51.26,-9.072,
51.28,-8.424,
51.3,-7.776,
51.32,-7.056,
51.34,-6.336,
51.36,-5.544,
51.38,-4.752,
51.4,-3.924,
51.42,-3.06,
51.44,-2.232,
51.46,-1.368,
51.48,-0.504,
51.5,0.36,
51.52,1.224,
51.54,2.088,
51.56,2.952,
51.58,3.78,
51.6,4.572,
51.62,5.364,
51.64,6.12,
51.66,6.84,
51.68,7.56,
51.7,8.208,
51.72,8.82,
51.74,9.396,
51.76,9.9,
51.78,10.368,
51.8,10.8,
51.82,11.16,
51.84,11.448,
51.86,11.7,
51.88,11.88,
51.9,12.024,
51.92,12.096,
51.94,12.096,
51.96,12.06,
51.98,11.952,
52,11.772,
52.02,11.556,
52.04,11.268,
52.06,10.944,
52.08,10.512,
52.1,10.08,
52.12,9.576,
52.14,9.072,
52.16,8.46,
52.18,7.848,
52.2,7.164,
52.22,6.48,
52.24,5.724,
52.26,4.968,
52.28,4.14,
52.3,3.384,
52.32,2.556,
52.34,1.728,
52.36,0.864,
52.38,0.036,
52.4,-0.828,
52.42,-1.656,
52.44,-2.484,
52.46,-3.276,
52.48,-4.104,
52.5,-4.896,
52.52,-5.652,
52.54,-6.372,
52.56,-7.092,
52.58,-7.74,
52.6,-8.352,
52.62,-8.928,
52.64,-9.468,
52.66,-9.936,
52.68,-10.404,
52.7,-10.764,
52.72,-11.088,
52.74,-11.376,
52.76,-11.556,
52.78,-11.7,
52.8,-11.808,
52.82,-11.844,
52.84,-11.808,
52.86,-11.736,
52.88,-11.592,
52.9,-11.412,
52.92,-11.16,
52.94,-10.836,
52.96,-10.44,
52.98,-10.044,
53,-9.576,
53.02,-9.036,
53.04,-8.496,
53.06,-7.884,
53.08,-7.236,
53.1,-6.552,
53.12,-5.868,
53.14,-5.112,
53.16,-4.356,
53.18,-3.564,
53.2,-2.772,
53.22,-1.944,
53.24,-1.152,
53.26,-0.288,
53.28,0.54,
53.3,1.368,
53.32,2.16,
53.34,2.952,
53.36,3.744,
53.38,4.536,
53.4,5.256,
53.42,5.976,
53.44,6.66,
53.46,7.308,
53.48,7.92,
53.5,8.496,
53.52,9.036,
53.54,9.54,
53.56,9.972,
53.58,10.332,
53.6,10.692,
53.62,10.944,
53.64,11.16,
53.66,11.34,
53.68,11.448,
53.7,11.484,
53.72,11.52,
53.74,11.448,
53.76,11.34,
53.78,11.16,
53.8,10.944,
53.82,10.656,
53.84,10.296,
53.86,9.9,
53.88,9.504,
53.9,9,
53.92,8.496,
53.94,7.92,
53.96,7.308,
53.98,6.66,
54,5.976,
54.02,5.292,
54.04,4.572,
54.06,3.816,
54.08,3.024,
54.1,2.268,
54.12,1.476,
54.14,0.684,
54.16,-0.144,
54.18,-0.936,
54.2,-1.764,
54.22,-2.556,
54.24,-3.312,
54.26,-4.068,
54.28,-4.824,
54.3,-5.508,
54.32,-6.192,
54.34,-6.876,
54.36,-7.488,
54.38,-8.064,
54.4,-8.604,
54.42,-9.108,
54.44,-9.54,
54.46,-9.936,
54.48,-10.296,
54.5,-10.584,
54.52,-10.836,
54.54,-11.016,
54.56,-11.16,
54.58,-11.232,
54.6,-11.232,
54.62,-11.232,
54.64,-11.124,
54.66,-10.98,
54.68,-10.764,
54.7,-10.512,
54.72,-10.188,
54.74,-9.828,
54.76,-9.432,
54.78,-8.964,
54.8,-8.46,
54.82,-7.956,
54.84,-7.344,
54.86,-6.732,
54.88,-6.084,
54.9,-5.4,
54.92,-4.68,
54.94,-3.96,
54.96,-3.204,
54.98,-2.448,
55,-1.656,
55.02,-0.936,
55.04,-0.108,
55.06,0.684,
55.08,1.476,
55.1,2.232,
55.12,2.988,
55.14,3.744,
55.16,4.464,
55.18,5.148,
55.2,5.832,
55.22,6.48,
55.24,7.056,
55.26,7.668,
55.28,8.172,
55.3,8.676,
55.32,9.144,
55.34,9.54,
55.36,9.9,
55.38,10.188,
55.4,10.44,
55.42,10.656,
55.44,10.8,
55.46,10.872,
55.48,10.908,
55.5,10.908,
55.52,10.836,
55.54,10.728,
55.56,10.548,
55.58,10.296,
55.6,10.008,
55.62,9.684,
55.64,9.324,
55.66,8.892,
55.68,8.424,
55.7,7.92,
55.72,7.38,
55.74,6.768,
55.76,6.192,
55.78,5.544,
55.8,4.86,
55.82,4.14,
55.84,3.42,
55.86,2.7,
55.88,1.98,
55.9,1.188,
55.92,0.432,
55.94,-0.288,
55.96,-1.044,
55.98,-1.836,
56,-2.556,
56.02,-3.312,
56.04,-4.032,
56.06,-4.716,
56.08,-5.4,
56.1,-6.048,
56.12,-6.66,
56.14,-7.236,
56.16,-7.776,
56.18,-8.244,
56.2,-8.712,
56.22,-9.144,
56.24,-9.504,
56.26,-9.828,
56.28,-10.08,
56.3,-10.296,
56.32,-10.476,
56.34,-10.584,
56.36,-10.656,
56.38,-10.656,
56.4,-10.62,
56.42,-10.512,
56.44,-10.368,
56.46,-10.152,
56.48,-9.9,
56.5,-9.576,
56.52,-9.216,
56.54,-8.856,
56.56,-8.388,
56.58,-7.884,
56.6,-7.38,
56.62,-6.804,
56.64,-6.228,
56.66,-5.616,
56.68,-4.932,
56.7,-4.32,
56.72,-3.564,
56.74,-2.88,
56.76,-2.16,
56.78,-1.404,
56.8,-0.684,
56.82,0.072,
56.84,0.828,
56.86,1.548,
56.88,2.268,
56.9,2.988,
56.92,3.708,
56.94,4.32,
56.96,5.04,
56.98,5.652,
57,6.264,
57.02,6.84,
57.04,7.344,
57.06,7.848,
57.08,8.28,
57.1,8.748,
57.12,9.108,
57.14,9.432,
57.16,9.684,
57.18,9.936,
57.2,10.116,
57.22,10.224,
57.24,10.296,
57.26,10.332,
57.28,10.296,
57.3,10.224,
57.32,10.116,
57.34,9.936,
57.36,9.684,
57.38,9.432,
57.4,9.072,
57.42,8.712,
57.44,8.316,
57.46,7.848,
57.48,7.38,
57.5,6.84,
57.52,6.264,
57.54,5.688,
57.56,5.112,
57.58,4.464,
57.6,3.78,
57.62,3.096,
57.64,2.376,
57.66,1.728,
57.68,1.008,
57.7,0.288,
57.72,-0.432,
57.74,-1.188,
57.76,-1.908,
57.78,-2.592,
57.8,-3.24,
57.82,-3.924,
57.84,-4.572,
57.86,-5.256,
57.88,-5.832,
57.9,-6.408,
57.92,-6.912,
57.94,-7.416,
57.96,-7.92,
57.98,-8.352,
58,-8.712,
58.02,-9.036,
58.04,-9.324,
58.06,-9.576,
58.08,-9.756,
58.1,-9.9,
58.12,-10.008,
58.14,-10.044,
58.16,-10.044,
58.18,-10.008,
58.2,-9.9,
58.22,-9.72,
58.24,-9.54,
58.26,-9.288,
58.28,-9,
58.3,-8.64,
58.32,-8.244,
58.34,-7.812,
58.36,-7.344,
58.38,-6.84,
58.4,-6.336,
58.42,-5.76,
58.44,-5.184,
58.46,-4.536,
58.48,-3.888,
58.5,-3.24,
58.52,-2.556,
58.54,-1.908,
58.56,-1.224,
58.58,-0.504,
58.6,0.18,
58.62,0.9,
58.64,1.584,
58.66,2.268,
58.68,2.952,
58.7,3.6,
58.72,4.248,
58.74,4.86,
58.76,5.436,
58.78,6.012,
58.8,6.552,
58.82,7.02,
58.84,7.488,
58.86,7.956,
58.88,8.316,
58.9,8.64,
58.92,8.964,
58.94,9.216,
58.96,9.396,
58.98,9.576,
59,9.648,
59.02,9.72,
59.04,9.756,
59.06,9.72,
59.08,9.648,
59.1,9.504,
59.12,9.324,
59.14,9.072,
59.16,8.82,
59.18,8.496,
59.2,8.136,
59.22,7.74,
59.24,7.308,
59.26,6.84,
59.28,6.336,
59.3,5.796,
59.32,5.256,
59.34,4.644,
59.36,4.032,
59.38,3.42,
59.4,2.736,
59.42,2.124,
59.44,1.44,
59.46,0.756,
59.48,0.108,
59.5,-0.576,
59.52,-1.296,
59.54,-1.944,
59.56,-2.592,
59.58,-3.24,
59.6,-3.852,
59.62,-4.464,
59.64,-5.076,
59.66,-5.616,
59.68,-6.156,
59.7,-6.66,
59.72,-7.128,
59.74,-7.524,
59.76,-7.92,
59.78,-8.28,
59.8,-8.568,
59.82,-8.856,
59.84,-9.072,
59.86,-9.216,
59.88,-9.36,
59.9,-9.432,
59.92,-9.468,
59.94,-9.432,
59.96,-9.396,
59.98,-9.288,
60,-9.108,
60.02,-8.928,
60.04,-8.676,
60.06,-8.388,
60.08,-8.028,
60.1,-7.668,
60.12,-7.272,
60.14,-6.804,
60.16,-6.336,
60.18,-5.832,
60.2,-5.292,
60.22,-4.716,
60.24,-4.104,
60.26,-3.528,
60.28,-2.916,
60.3,-2.268,
60.32,-1.584,
60.34,-0.972,
60.36,-0.288,
60.38,0.36,
60.4,1.008,
60.42,1.656,
60.44,2.304,
60.46,2.952,
60.48,3.564,
60.5,4.14,
60.52,4.716,
60.54,5.256,
60.56,5.796,
60.58,6.264,
60.6,6.732,
60.62,7.164,
60.64,7.56,
60.66,7.92,
60.68,8.208,
60.7,8.496,
60.72,8.712,
60.74,8.892,
60.76,9.036,
60.78,9.108,
60.8,9.144,
60.82,9.144,
60.84,9.108,
60.86,9.036,
60.88,8.892,
60.9,8.712,
60.92,8.46,
60.94,8.208,
60.96,7.884,
60.98,7.56,
61,7.164,
61.02,6.732,
61.04,6.3,
61.06,5.796,
61.08,5.292,
61.1,4.752,
61.12,4.176,
61.14,3.6,
61.16,3.024,
61.18,2.412,
61.2,1.764,
61.22,1.152,
61.24,0.504,
61.26,-0.144,
61.28,-0.756,
61.3,-1.404,
61.32,-2.016,
61.34,-2.628,
61.36,-3.24,
61.38,-3.816,
61.4,-4.392,
61.42,-4.932,
61.44,-5.436,
61.46,-5.94,
61.48,-6.372,
61.5,-6.804,
61.52,-7.2,
61.54,-7.56,
61.56,-7.848,
61.58,-8.136,
61.6,-8.352,
61.62,-8.568,
61.64,-8.712,
61.66,-8.82,
61.68,-8.856,
61.7,-8.856,
61.72,-8.856,
61.74,-8.784,
61.76,-8.64,
61.78,-8.496,
61.8,-8.28,
61.82,-8.028,
61.84,-7.776,
61.86,-7.416,
61.88,-7.056,
61.9,-6.66,
61.92,-6.264,
61.94,-5.796,
61.96,-5.292,
61.98,-4.788,
62,-4.248,
62.02,-3.672,
62.04,-3.132,
62.06,-2.52,
62.08,-1.908,
62.1,-1.332,
62.12,-0.684,
62.14,-0.072,
62.16,0.54,
62.18,1.152,
62.2,1.764,
62.22,2.376,
62.24,2.952,
62.26,3.528,
62.28,4.068,
62.3,4.608,
62.32,5.112,
62.34,5.58,
62.36,6.048,
62.38,6.444,
62.4,6.84,
62.42,7.2,
62.44,7.524,
62.46,7.776,
62.48,8.028,
62.5,8.208,
62.52,8.388,
62.54,8.496,
62.56,8.568,
62.58,8.568,
62.6,8.568,
62.62,8.496,
62.64,8.424,
62.66,8.28,
62.68,8.064,
62.7,7.848,
62.72,7.596,
62.74,7.272,
62.76,6.948,
62.78,6.552,
62.8,6.156,
62.82,5.724,
62.84,5.256,
62.86,4.752,
62.88,4.248,
62.9,3.708,
62.92,3.168,
62.94,2.592,
62.96,2.052,
62.98,1.476,
63,0.864,
63.02,0.288,
63.04,-0.324,
63.06,-0.936,
63.08,-1.512,
63.1,-2.088,
63.12,-2.664,
63.14,-3.204,
63.16,-3.744,
63.18,-4.284,
63.2,-4.788,
63.22,-5.256,
63.24,-5.688,
63.26,-6.12,
63.28,-6.516,
63.3,-6.876,
63.32,-7.164,
63.34,-7.452,
63.36,-7.704,
63.38,-7.884,
63.4,-8.064,
63.42,-8.172,
63.44,-8.244,
63.46,-8.28,
63.48,-8.28,
63.5,-8.244,
63.52,-8.172,
63.54,-8.028,
63.56,-7.884,
63.58,-7.668,
63.6,-7.416,
63.62,-7.128,
63.64,-6.84,
63.66,-6.48,
63.68,-6.084,
63.7,-5.688,
63.72,-5.256,
63.74,-4.788,
63.76,-4.284,
63.78,-3.78,
63.8,-3.24,
63.82,-2.7,
63.84,-2.16,
63.86,-1.584,
63.88,-1.008,
63.9,-0.432,
63.92,0.144,
63.94,0.72,
63.96,1.296,
63.98,1.872,
64,2.412,
64.02,2.952,
64.04,3.492,
64.06,3.996,
64.08,4.464,
64.1,4.932,
64.12,5.4,
64.14,5.796,
64.16,6.156,
64.18,6.516,
64.2,6.84,
64.22,7.128,
64.24,7.344,
64.26,7.56,
64.28,7.74,
64.3,7.848,
64.32,7.956,
64.34,7.992,
64.36,7.992,
64.38,7.992,
64.4,7.92,
64.42,7.812,
64.44,7.632,
64.46,7.452,
64.48,7.236,
64.5,6.984,
64.52,6.66,
64.54,6.336,
64.56,5.976,
64.58,5.58,
64.6,5.184,
64.62,4.716,
64.64,4.248,
64.66,3.78,
64.68,3.276,
64.7,2.736,
64.72,2.232,
64.74,1.692,
64.76,1.152,
64.78,0.576,
64.8,0.036,
64.82,-0.54,
64.84,-1.08,
64.86,-1.62,
64.88,-2.16,
64.9,-2.7,
64.92,-3.204,
64.94,-3.708,
64.96,-4.176,
64.98,-4.644,
65,-5.076,
65.02,-5.472,
65.04,-5.832,
65.06,-6.192,
65.08,-6.516,
65.1,-6.804,
65.12,-7.056,
65.14,-7.236,
65.16,-7.416,
65.18,-7.56,
65.2,-7.632,
65.22,-7.704,
65.24,-7.704,
65.26,-7.704,
65.28,-7.668,
65.3,-7.56,
65.32,-7.416,
65.34,-7.236,
65.36,-7.056,
65.38,-6.804,
65.4,-6.516,
65.42,-6.192,
65.44,-5.868,
65.46,-5.508,
65.48,-5.112,
65.5,-4.68,
65.52,-4.248,
65.54,-3.78,
65.56,-3.276,
65.58,-2.808,
65.6,-2.268,
65.62,-1.764,
65.64,-1.224,
65.66,-0.684,
65.68,-0.144,
65.7,0.396,
65.72,0.936,
65.74,1.44,
65.76,1.98,
65.78,2.484,
65.8,2.988,
65.82,3.456,
65.84,3.924,
65.86,4.392,
65.88,4.788,
65.9,5.184,
65.92,5.544,
65.94,5.904,
65.96,6.192,
65.98,6.48,
66,6.732,
66.02,6.948,
66.04,7.128,
66.06,7.272,
66.08,7.344,
66.1,7.416,
66.12,7.452,
66.14,7.452,
66.16,7.416,
66.18,7.308,
66.2,7.2,
66.22,7.02,
66.24,6.84,
66.26,6.624,
66.28,6.336,
66.3,6.048,
66.32,5.724,
66.34,5.4,
66.36,5.004,
66.38,4.608,
66.4,4.212,
66.42,3.744,
66.44,3.312,
66.46,2.808,
66.48,2.34,
66.5,1.836,
66.52,1.332,
66.54,0.828,
66.56,0.288,
66.58,-0.216,
66.6,-0.72,
66.62,-1.224,
66.64,-1.728,
66.66,-2.232,
66.68,-2.736,
66.7,-3.204,
66.72,-3.636,
66.74,-4.068,
66.76,-4.5,
66.78,-4.896,
66.8,-5.256,
66.82,-5.58,
66.84,-5.904,
66.86,-6.156,
66.88,-6.408,
66.9,-6.624,
66.92,-6.804,
66.94,-6.948,
66.96,-7.056,
66.98,-7.092,
67,-7.128,
67.02,-7.128,
67.04,-7.128,
67.06,-7.056,
67.08,-6.912,
67.1,-6.804,
67.12,-6.624,
67.14,-6.408,
67.16,-6.156,
67.18,-5.904,
67.2,-5.58,
67.22,-5.256,
67.24,-4.896,
67.26,-4.5,
67.28,-4.104,
67.3,-3.672,
67.32,-3.24,
67.34,-2.808,
67.36,-2.34,
67.38,-1.836,
67.4,-1.368,
67.42,-0.864,
67.44,-0.36,
67.46,0.144,
67.48,0.612,
67.5,1.116,
67.52,1.62,
67.54,2.088,
67.56,2.556,
67.58,3.024,
67.6,3.456,
67.62,3.852,
67.64,4.248,
67.66,4.644,
67.68,5.004,
67.7,5.328,
67.72,5.616,
67.74,5.904,
67.76,6.12,
67.78,6.336,
67.8,6.516,
67.82,6.66,
67.84,6.768,
67.86,6.84,
67.88,6.876,
67.9,6.876,
67.92,6.876,
67.94,6.804,
67.96,6.696,
67.98,6.552,
68,6.408,
68.02,6.192,
68.04,5.976,
68.06,5.724,
68.08,5.436,
68.1,5.148,
68.12,4.788,
68.14,4.428,
68.16,4.068,
68.18,3.672,
68.2,3.24,
68.22,2.808,
68.24,2.376,
68.26,1.908,
68.28,1.44,
68.3,0.972,
68.32,0.504,
68.34,0.036,
68.36,-0.468,
68.38,-0.936,
68.4,-1.404,
68.42,-1.872,
68.44,-2.304,
68.46,-2.736,
68.48,-3.168,
68.5,-3.6,
68.52,-3.96,
68.54,-4.32,
68.56,-4.68,
68.58,-5.004,
68.6,-5.292,
68.62,-5.58,
68.64,-5.796,
68.66,-6.012,
68.68,-6.192,
68.7,-6.336,
68.72,-6.444,
68.74,-6.516,
68.76,-6.552,
68.78,-6.588,
68.8,-6.552,
68.82,-6.516,
68.84,-6.408,
68.86,-6.3,
68.88,-6.156,
68.9,-5.976,
68.92,-5.76,
68.94,-5.508,
68.96,-5.256,
68.98,-4.932,
69,-4.608,
69.02,-4.284,
69.04,-3.924,
69.06,-3.528,
69.08,-3.132,
69.1,-2.736,
69.12,-2.304,
69.14,-1.872,
69.16,-1.404,
69.18,-0.936,
69.2,-0.504,
69.22,-0.036,
69.24,0.432,
69.26,0.864,
69.28,1.332,
69.3,1.764,
69.32,2.196,
69.34,2.628,
69.36,3.024,
69.38,3.42,
69.4,3.816,
69.42,4.14,
69.44,4.464,
69.46,4.788,
69.48,5.076,
69.5,5.328,
69.52,5.544,
69.54,5.76,
69.56,5.94,
69.58,6.084,
69.6,6.192,
69.62,6.264,
69.64,6.3,
69.66,6.336,
69.68,6.336,
69.7,6.264,
69.72,6.192,
69.74,6.084,
69.76,5.94,
69.78,5.76,
69.8,5.58,
69.82,5.364,
69.84,5.112,
69.86,4.824,
69.88,4.536,
69.9,4.212,
69.92,3.852,
69.94,3.492,
69.96,3.132,
69.98,2.736,
70,2.34,
70.02,1.908,
70.04,1.512,
70.06,1.08,
70.08,0.612,
70.1,0.18,
70.12,-0.252,
70.14,-0.684,
70.16,-1.116,
70.18,-1.548,
70.2,-1.944,
70.22,-2.376,
70.24,-2.772,
70.26,-3.132,
70.28,-3.492,
70.3,-3.852,
70.32,-4.176,
70.34,-4.464,
70.36,-4.752,
70.38,-5.004,
70.4,-5.256,
70.42,-5.436,
70.44,-5.616,
70.46,-5.76,
70.48,-5.868,
70.5,-5.94,
70.52,-5.976,
70.54,-6.012,
70.56,-6.012,
70.58,-5.976,
70.6,-5.904,
70.62,-5.796,
70.64,-5.652,
70.66,-5.508,
70.68,-5.328,
70.7,-5.112,
70.72,-4.86,
70.74,-4.608,
70.76,-4.32,
70.78,-3.996,
70.8,-3.672,
70.82,-3.348,
70.84,-2.952,
70.86,-2.592,
70.88,-2.232,
70.9,-1.8,
70.92,-1.404,
70.94,-1.008,
70.96,-0.576,
70.98,-0.144,
71,0.252,
71.02,0.684,
71.04,1.08,
71.06,1.512,
71.08,1.908,
71.1,2.304,
71.12,2.664,
71.14,3.024,
71.16,3.384,
71.18,3.708,
71.2,4.032,
71.22,4.284,
71.24,4.572,
71.26,4.824,
71.28,5.004,
71.3,5.22,
71.32,5.364,
71.34,5.508,
71.36,5.616,
71.38,5.688,
71.4,5.76,
71.42,5.76,
71.44,5.76,
71.46,5.76,
71.48,5.688,
71.5,5.58,
71.52,5.472,
71.54,5.328,
71.56,5.148,
71.58,4.968,
71.6,4.716,
71.62,4.464,
71.64,4.212,
71.66,3.924,
71.68,3.636,
71.7,3.312,
71.72,2.952,
71.74,2.592,
71.76,2.232,
71.78,1.872,
71.8,1.476,
71.82,1.08,
71.84,0.684,
71.86,0.288,
71.88,-0.108,
71.9,-0.504,
71.92,-0.9,
71.94,-1.296,
71.96,-1.656,
71.98,-2.052,
72,-2.376,
72.02,-2.736,
72.04,-3.096,
72.06,-3.384,
72.08,-3.708,
72.1,-3.996,
72.12,-4.248,
72.14,-4.5,
72.16,-4.68,
72.18,-4.896,
72.2,-5.04,
72.22,-5.184,
72.24,-5.292,
72.26,-5.364,
72.28,-5.436,
72.3,-5.472,
72.32,-5.472,
72.34,-5.436,
72.36,-5.364,
72.38,-5.292,
72.4,-5.184,
72.42,-5.04,
72.44,-4.86,
72.46,-4.68,
72.48,-4.464,
72.5,-4.212,
72.52,-3.96,
72.54,-3.708,
72.56,-3.42,
72.58,-3.096,
72.6,-2.772,
72.62,-2.448,
72.64,-2.088,
72.66,-1.728,
72.68,-1.368,
72.7,-0.972,
72.72,-0.612,
72.74,-0.216,
72.76,0.144,
72.78,0.54,
72.8,0.9,
72.82,1.296,
72.84,1.656,
72.86,1.98,
72.88,2.34,
72.9,2.664,
72.92,2.988,
72.94,3.276,
72.96,3.564,
72.98,3.852,
73,4.068,
73.02,4.284,
73.04,4.5,
73.06,4.68,
73.08,4.824,
73.1,4.968,
73.12,5.076,
73.14,5.148,
73.16,5.184,
73.18,5.22,
73.2,5.22,
73.22,5.22,
73.24,5.148,
73.26,5.076,
73.28,4.968,
73.3,4.824,
73.32,4.68,
73.34,4.536,
73.36,4.32,
73.38,4.104,
73.4,3.888,
73.42,3.6,
73.44,3.348,
73.46,3.06,
73.48,2.736,
73.5,2.448,
73.52,2.124,
73.54,1.764,
73.56,1.44,
73.58,1.08,
73.6,0.72,
73.62,0.36,
73.64,0,
73.66,-0.36,
73.68,-0.72,
73.7,-1.08,
73.72,-1.404,
73.74,-1.764,
73.76,-2.088,
73.78,-2.376,
73.8,-2.7,
73.82,-2.988,
73.84,-3.276,
73.86,-3.528,
73.88,-3.78,
73.9,-3.96,
73.92,-4.176,
73.94,-4.356,
73.96,-4.5,
73.98,-4.644,
74,-4.752,
74.02,-4.824,
74.04,-4.86,
74.06,-4.896,
74.08,-4.896,
74.1,-4.896,
74.12,-4.824,
74.14,-4.752,
74.16,-4.68,
74.18,-4.536,
74.2,-4.392,
74.22,-4.248,
74.24,-4.032,
74.26,-3.852,
74.28,-3.6,
74.3,-3.384,
74.32,-3.096,
74.34,-2.844,
74.36,-2.556,
74.38,-2.232,
74.4,-1.944,
74.42,-1.62,
74.44,-1.296,
74.46,-0.936,
74.48,-0.612,
74.5,-0.288,
74.52,0.072,
74.54,0.396,
74.56,0.756,
74.58,1.08,
74.6,1.404,
74.62,1.728,
74.64,2.052,
74.66,2.34,
74.68,2.628,
74.7,2.88,
74.72,3.168,
74.74,3.384,
74.76,3.6,
74.78,3.816,
74.8,3.996,
74.82,4.176,
74.84,4.32,
74.86,4.428,
74.88,4.536,
74.9,4.608,
74.92,4.644,
74.94,4.68,
74.96,4.68,
74.98,4.68,
75,4.608,
75.02,4.536,
75.04,4.464,
75.06,4.356,
75.08,4.212,
75.1,4.068,
75.12,3.888,
75.14,3.708,
75.16,3.492,
75.18,3.276,
75.2,3.024,
75.22,2.772,
75.24,2.484,
75.26,2.232,
75.28,1.944,
75.3,1.62,
75.32,1.332,
75.34,1.008,
75.36,0.684,
75.38,0.36,
75.4,0.072,
75.42,-0.288,
75.44,-0.576,
75.46,-0.9,
75.48,-1.224,
75.5,-1.512,
75.52,-1.8,
75.54,-2.088,
75.56,-2.376,
75.58,-2.628,
75.6,-2.88,
75.62,-3.096,
75.64,-3.312,
75.66,-3.528,
75.68,-3.672,
75.7,-3.852,
75.72,-3.996,
75.74,-4.104,
75.76,-4.212,
75.78,-4.284,
75.8,-4.32,
75.82,-4.356,
75.84,-4.356,
75.86,-4.356,
75.88,-4.32,
75.9,-4.248,
75.92,-4.14,
75.94,-4.032,
75.96,-3.924,
75.98,-3.78,
76,-3.6,
76.02,-3.42,
76.04,-3.24,
76.06,-3.024,
76.08,-2.772,
76.1,-2.556,
76.12,-2.304,
76.14,-2.016,
76.16,-1.728,
76.18,-1.476,
76.2,-1.188,
76.22,-0.864,
76.24,-0.576,
76.26,-0.288,
76.28,0.036,
76.3,0.324,
76.32,0.648,
76.34,0.936,
76.36,1.224,
76.38,1.512,
76.4,1.764,
76.42,2.016,
76.44,2.304,
76.46,2.52,
76.48,2.772,
76.5,2.988,
76.52,3.168,
76.54,3.348,
76.56,3.528,
76.58,3.672,
76.6,3.78,
76.62,3.888,
76.64,3.996,
76.66,4.032,
76.68,4.104,
76.7,4.104,
76.72,4.14,
76.74,4.104,
76.76,4.068,
76.78,4.032,
76.8,3.96,
76.82,3.852,
76.84,3.744,
76.86,3.6,
76.88,3.42,
76.9,3.276,
76.92,3.096,
76.94,2.88,
76.96,2.664,
76.98,2.448,
77,2.232,
77.02,1.98,
77.04,1.728,
77.06,1.44,
77.08,1.188,
77.1,0.9,
77.12,0.612,
77.14,0.36,
77.16,0.072,
77.18,-0.216,
77.2,-0.504,
77.22,-0.756,
77.24,-1.044,
77.26,-1.296,
77.28,-1.584,
77.3,-1.8,
77.32,-2.052,
77.34,-2.304,
77.36,-2.52,
77.38,-2.7,
77.4,-2.88,
77.42,-3.06,
77.44,-3.24,
77.46,-3.348,
77.48,-3.492,
77.5,-3.6,
77.52,-3.672,
77.54,-3.744,
77.56,-3.78,
77.58,-3.816,
77.6,-3.816,
77.62,-3.816,
77.64,-3.78,
77.66,-3.708,
77.68,-3.636,
77.7,-3.528,
77.72,-3.42,
77.74,-3.312,
77.76,-3.168,
77.78,-3.024,
77.8,-2.844,
77.82,-2.664,
77.84,-2.448,
77.86,-2.232,
77.88,-2.016,
77.9,-1.8,
77.92,-1.548,
77.94,-1.296,
77.96,-1.044,
77.98,-0.792,
78,-0.54,
78.02,-0.252,
78.04,0,
78.06,0.252,
78.08,0.504,
78.1,0.792,
78.12,1.044,
78.14,1.26,
78.16,1.512,
78.18,1.764,
78.2,1.98,
78.22,2.196,
78.24,2.376,
78.26,2.556,
78.28,2.736,
78.3,2.916,
78.32,3.024,
78.34,3.168,
78.36,3.276,
78.38,3.384,
78.4,3.456,
78.42,3.528,
78.44,3.564,
78.46,3.564,
78.48,3.564,
78.5,3.564,
78.52,3.528,
78.54,3.492,
78.56,3.42,
78.58,3.312,
78.6,3.24,
78.62,3.132,
78.64,2.988,
78.66,2.844,
78.68,2.664,
78.7,2.484,
78.72,2.304,
78.74,2.124,
78.76,1.908,
78.78,1.692,
78.8,1.476,
78.82,1.26,
78.84,1.008,
78.86,0.792,
78.88,0.54,
78.9,0.288,
78.92,0.072,
78.94,-0.18,
78.96,-0.432,
78.98,-0.648,
79,-0.9,
79.02,-1.116,
79.04,-1.332,
79.06,-1.548,
79.08,-1.764,
79.1,-1.944,
79.12,-2.16,
79.14,-2.304,
79.16,-2.484,
79.18,-2.628,
79.2,-2.772,
79.22,-2.88,
79.24,-2.988,
79.26,-3.06,
79.28,-3.132,
79.3,-3.204,
79.32,-3.24,
79.34,-3.24,
79.36,-3.24,
79.38,-3.24,
79.4,-3.24,
79.42,-3.168,
79.44,-3.096,
79.46,-3.024,
79.48,-2.952,
79.5,-2.844,
79.52,-2.736,
79.54,-2.592,
79.56,-2.448,
79.58,-2.304,
79.6,-2.088,
79.62,-1.944,
79.64,-1.728,
79.66,-1.548,
79.68,-1.332,
79.7,-1.116,
79.72,-0.9,
79.74,-0.684,
79.76,-0.468,
79.78,-0.252,
79.8,-0.036,
79.82,0.18,
79.84,0.396,
79.86,0.612,
79.88,0.828,
79.9,1.044,
79.92,1.26,
79.94,1.476,
79.96,1.656,
79.98,1.836,
80,1.98,
80.02,2.16,
80.04,2.304,
80.06,2.448,
80.08,2.556,
80.1,2.664,
80.12,2.772,
80.14,2.844,
80.16,2.916,
80.18,2.952,
80.2,2.988,
80.22,3.024,
80.24,3.024,
80.26,3.024,
80.28,2.988,
80.3,2.952,
80.32,2.88,
80.34,2.808,
80.36,2.736,
80.38,2.628,
80.4,2.52,
80.42,2.412,
80.44,2.268,
80.46,2.124,
80.48,1.98,
80.5,1.8,
80.52,1.62,
80.54,1.44,
80.56,1.26,
80.58,1.08,
80.6,0.864,
80.62,0.684,
80.64,0.468,
80.66,0.288,
80.68,0.072,
80.7,-0.144,
80.72,-0.324,
80.74,-0.54,
80.76,-0.72,
80.78,-0.936,
80.8,-1.116,
80.82,-1.296,
80.84,-1.44,
80.86,-1.62,
80.88,-1.764,
80.9,-1.908,
80.92,-2.052,
80.94,-2.16,
80.96,-2.304,
80.98,-2.376,
81,-2.484,
81.02,-2.556,
81.04,-2.592,
81.06,-2.664,
81.08,-2.7,
81.1,-2.7,
81.12,-2.7,
81.14,-2.7,
81.16,-2.7,
81.18,-2.664,
81.2,-2.592,
81.22,-2.52,
81.24,-2.448,
81.26,-2.376,
81.28,-2.268,
81.3,-2.16,
81.32,-2.052,
81.34,-1.908,
81.36,-1.8,
81.38,-1.62,
81.4,-1.476,
81.42,-1.332,
81.44,-1.152,
81.46,-0.972,
81.48,-0.792,
81.5,-0.648,
81.52,-0.432,
81.54,-0.252,
81.56,-0.072,
81.58,0.108,
81.6,0.288,
81.62,0.468,
81.64,0.648,
81.66,0.828,
81.68,0.972,
81.7,1.152,
81.72,1.296,
81.74,1.44,
81.76,1.584,
81.78,1.728,
81.8,1.872,
81.82,1.98,
81.84,2.088,
81.86,2.16,
81.88,2.268,
81.9,2.304,
81.92,2.376,
81.94,2.412,
81.96,2.448,
81.98,2.448,
82,2.484,
82.02,2.484,
82.04,2.448,
82.06,2.412,
82.08,2.376,
82.1,2.34,
82.12,2.268,
82.14,2.16,
82.16,2.088,
82.18,1.98,
82.2,1.872,
82.22,1.764,
82.24,1.656,
82.26,1.512,
82.28,1.368,
82.3,1.224,
82.32,1.08,
82.34,0.936,
82.36,0.756,
82.38,0.612,
82.4,0.432,
82.42,0.288,
82.44,0.108,
82.46,-0.036,
82.48,-0.216,
82.5,-0.36,
82.52,-0.54,
82.54,-0.684,
82.56,-0.828,
82.58,-0.972,
82.6,-1.116,
82.62,-1.26,
82.64,-1.368,
82.66,-1.512,
82.68,-1.62,
82.7,-1.728,
82.72,-1.8,
82.74,-1.872,
82.76,-1.944,
82.78,-2.016,
82.8,-2.052,
82.82,-2.088,
82.84,-2.124,
82.86,-2.16,
82.88,-2.16,
82.9,-2.16,
82.92,-2.16,
82.94,-2.124,
82.96,-2.088,
82.98,-2.016,
83,-1.98,
83.02,-1.908,
83.04,-1.836,
83.06,-1.728,
83.08,-1.656,
83.1,-1.548,
83.12,-1.44,
83.14,-1.332,
83.16,-1.224,
83.18,-1.08,
83.2,-0.972,
83.22,-0.828,
83.24,-0.684,
83.26,-0.54,
83.28,-0.396,
83.3,-0.252,
83.32,-0.108,
83.34,0.036,
83.36,0.18,
83.38,0.324,
83.4,0.432,
83.42,0.576,
83.44,0.72,
83.46,0.864,
83.48,0.972,
83.5,1.08,
83.52,1.224,
83.54,1.296,
83.56,1.404,
83.58,1.512,
83.6,1.584,
83.62,1.656,
83.64,1.728,
83.66,1.8,
83.68,1.836,
83.7,1.872,
83.72,1.908,
83.74,1.908,
83.76,1.908,
83.78,1.908,
83.8,1.908,
83.82,1.908,
83.84,1.872,
83.86,1.836,
83.88,1.764,
83.9,1.728,
83.92,1.656,
83.94,1.584,
83.96,1.512,
83.98,1.404,
84,1.296,
84.02,1.224,
84.04,1.116,
84.06,1.008,
84.08,0.864,
84.1,0.756,
84.12,0.648,
84.14,0.54,
84.16,0.396,
84.18,0.288,
84.2,0.144,
84.22,0.036,
84.24,-0.108,
84.26,-0.216,
84.28,-0.324,
84.3,-0.468,
84.32,-0.576,
84.34,-0.684,
84.36,-0.792,
84.38,-0.9,
84.4,-0.972,
84.42,-1.08,
84.44,-1.152,
84.46,-1.224,
84.48,-1.296,
84.5,-1.368,
84.52,-1.44,
84.54,-1.476,
84.56,-1.512,
84.58,-1.548,
84.6,-1.548,
84.62,-1.584,
84.64,-1.584,
84.66,-1.584,
84.68,-1.584,
84.7,-1.548,
84.72,-1.512,
84.74,-1.512,
84.76,-1.44,
84.78,-1.404,
84.8,-1.368,
84.82,-1.296,
84.84,-1.224,
84.86,-1.152,
84.88,-1.08,
84.9,-1.008,
84.92,-0.9,
84.94,-0.828,
84.96,-0.72,
84.98,-0.612,
85,-0.54,
85.02,-0.432,
85.04,-0.324,
85.06,-0.216,
85.08,-0.108,
85.1,0,
85.12,0.108,
85.14,0.216,
85.16,0.288,
85.18,0.396,
85.2,0.504,
85.22,0.576,
85.24,0.684,
85.26,0.756,
85.28,0.864,
85.3,0.936,
85.32,1.008,
85.34,1.08,
85.36,1.116,
85.38,1.188,
85.4,1.224,
85.42,1.26,
85.44,1.296,
85.46,1.332,
85.48,1.368,
85.5,1.368,
85.52,1.368,
85.54,1.368,
85.56,1.368,
85.58,1.368,
85.6,1.332,
85.62,1.296,
85.64,1.26,
85.66,1.224,
85.68,1.188,
85.7,1.116,
85.72,1.08,
85.74,1.008,
85.76,0.936,
85.78,0.864,
85.8,0.792,
85.82,0.72,
85.84,0.648,
85.86,0.576,
85.88,0.504,
85.9,0.396,
85.92,0.324,
85.94,0.216,
85.96,0.144,
85.98,0.072,
86,-0.036,
86.02,-0.108,
86.04,-0.18,
86.06,-0.288,
86.08,-0.36,
86.1,-0.432,
86.12,-0.504,
86.14,-0.576,
86.16,-0.648,
86.18,-0.684,
86.2,-0.756,
86.22,-0.792,
86.24,-0.828,
86.26,-0.864,
86.28,-0.936,
86.3,-0.936,
86.32,-0.972,
86.34,-1.008,
86.36,-1.008,
86.38,-1.008,
86.4,-1.008,
86.42,-1.008,
86.44,-1.008,
86.46,-1.008,
86.48,-0.972,
86.5,-0.936,
86.52,-0.936,
86.54,-0.9,
86.56,-0.864,
86.58,-0.792,
86.6,-0.756,
86.62,-0.72,
86.64,-0.648,
86.66,-0.612,
86.68,-0.54,
86.7,-0.504,
86.72,-0.432,
86.74,-0.36,
86.76,-0.324,
86.78,-0.252,
86.8,-0.18,
86.82,-0.108,
86.84,-0.036,
86.86,0.036,
86.88,0.072,
86.9,0.144,
86.92,0.216,
86.94,0.288,
86.96,0.324,
86.98,0.396,
87,0.432,
87.02,0.504,
87.04,0.54,
87.06,0.576,
87.08,0.648,
87.1,0.684,
87.12,0.72,
87.14,0.72,
87.16,0.756,
87.18,0.792,
87.2,0.792,
87.22,0.792,
87.24,0.828,
87.26,0.828,
87.28,0.828,
87.3,0.828,
87.32,0.828,
87.34,0.792,
87.36,0.792,
87.38,0.756,
87.4,0.72,
87.42,0.72,
87.44,0.684,
87.46,0.648,
87.48,0.612,
87.5,0.576,
87.52,0.54,
87.54,0.504,
87.56,0.432,
87.58,0.396,
87.6,0.36,
87.62,0.288,
87.64,0.252,
87.66,0.216,
87.68,0.144,
87.7,0.108,
87.72,0.072,
87.74,0,
87.76,-0.036,
87.78,-0.072,
87.8,-0.108,
87.82,-0.144,
87.84,-0.216,
87.86,-0.216,
87.88,-0.288,
87.9,-0.288,
87.92,-0.324,
87.94,-0.36,
87.96,-0.396,
87.98,-0.432,
88,-0.432,
88.02,-0.432,
88.04,-0.468,
88.06,-0.468,
88.08,-0.468,
88.1,-0.468,
88.12,-0.468,
88.14,-0.468,
88.16,-0.468,
88.18,-0.468,
88.2,-0.468,
88.22,-0.432,
88.24,-0.432,
88.26,-0.396,
88.28,-0.396,
88.3,-0.36,
88.32,-0.36,
88.34,-0.324,
88.36,-0.288,
88.38,-0.252,
88.4,-0.216,
88.42,-0.216,
88.44,-0.18,
88.46,-0.144,
88.48,-0.108,
88.5,-0.072,
88.52,-0.072,
88.54,-0.036,
88.56,0,
88.58,0.036,
88.6,0.072,
88.62,0.072,
88.64,0.108,
88.66,0.144,
88.68,0.18,
88.7,0.18,
88.72,0.216,
88.74,0.216,
88.76,0.252,
88.78,0.252,
88.8,0.288,
88.82,0.288,
88.84,0.288,
88.86,0.324,
88.88,0.324,
88.9,0.324,
88.92,0.324,
88.94,0.324,
88.96,0.324,
88.98,0.324,
89,0.324,
89.02,0.324,
89.04,0.324,
89.06,0.288,
89.08,0.288,
89.1,0.288,
89.12,0.252,
89.14,0.252,
89.16,0.252,
89.18,0.216,
89.2,0.216,
89.22,0.18,
89.24,0.18,
89.26,0.144,
89.28,0.144,
89.3,0.144,
89.32,0.108,
89.34,0.108,
89.36,0.072,
89.38,0.072,
89.4,0.072,
89.42,0.036,
89.44,0.036,
89.46,0,
89.48,0,
89.5,0,
89.52,0,
89.54,-0.036,
89.56,-0.036,
89.58,-0.036,
89.6,-0.036,
89.62,-0.036,
89.64,-0.036,
89.66,-0.072,
89.68,-0.072,
89.7,-0.072,
89.72,-0.072,
89.74,-0.072,
89.76,-0.072,
89.78,-0.072,
89.8,-0.036,
89.82,-0.036,
89.84,-0.036,
89.86,-0.036,
89.88,-0.036,
89.9,-0.036,
89.92,-0.036,
89.94,0,
89.96,0,
89.98,0,
90,0,
90.02,0,
90.04,0,
90.06,0,
90.08,0.036,
90.1,0.036,
90.12,0.036,
90.14,0.036,
90.16,0.036,
90.18,0.036,
90.2,0.036,
90.22,0.036,
90.24,0.036,
90.26,0.036,
90.28,0.036,
90.3,0.036,
90.32,0.036,
90.34,0.036,
90.36,0.036,
90.38,0.036,
90.4,0.036,
90.42,0.036,
90.44,0.036,
90.46,0.036,
90.48,0.036,
90.5,0.036,
90.52,0.036,
90.54,0.036,
90.56,0.036,
90.58,0.036,
90.6,0.036,
90.62,0.036,
90.64,0.036,
90.66,0.036,
90.68,0.036,
90.7,0.036,
90.72,0.036,
90.74,0.036,
90.76,0.036,
90.78,0.036,
90.8,0.036,
90.82,0.036,
90.84,0.036,
90.86,0.036,
90.88,0.036,
90.9,0.036,
90.92,0.036,
90.94,0.036,
90.96,0.036,
90.98,0.036,
91,0.036,
91.02,0.036,
91.04,0.036,
91.06,0.036,
91.08,0.036,
91.1,0.036,
91.12,0.036,
91.14,0.036,
91.16,0.036,
91.18,0.036,
91.2,0.036,
91.22,0.036,
91.24,0.036,
91.26,0.036,
91.28,0.036,
91.3,0.036,
91.32,0.036,
91.34,0.036,
91.36,0.036,
91.38,0.036,
91.4,0.036,
91.42,0.036,
91.44,0.036,
91.46,0.036,
91.48,0.036,
91.5,0.036,
91.52,0.036,
91.54,0.036,
91.56,0.036,
91.58,0.036,
91.6,0.036,
91.62,0.036,
91.64,0.036,
91.66,0.036,
91.68,0.036,
91.7,0.036,
91.72,0.036,
91.74,0.036,
91.76,0.036,
91.78,0.036,
91.8,0.036,
91.82,0.036,
91.84,0.036,
91.86,0.036,
91.88,0.036,
91.9,0.036,
91.92,0.036,
91.94,0.036,
91.96,0.036,
91.98,0.036,
92,0.036,
92.02,0.036,
92.04,0.036,
92.06,0.036,
92.08,0.036,
92.1,0.036,
92.12,0.036,
92.14,0.036,
92.16,0.036,
92.18,0.036,
92.2,0.036,
92.22,0.036,
92.24,0.036,
92.26,0.036,
92.28,0.036,
92.3,0.036,
92.32,0.036,
92.34,0.036,
92.36,0.036,
92.38,0.036,
92.4,0.036,
92.42,0.036,
92.44,0.036,
92.46,0.036,
92.48,0.036,
92.5,0.036,
92.52,0.036,
92.54,0.036,
92.56,0.036,
92.58,0.036,
92.6,0.036,
92.62,0.036,
92.64,0.036,
92.66,0.036,
92.68,0.036,
92.7,0.036,
92.72,0.036,
92.74,0.036,
92.76,0.036,
92.78,0.036,
92.8,0.036,
92.82,0.036,
92.84,0.036,
92.86,0.036,
92.88,0.036,
92.9,0.036,
92.92,0.036,
92.94,0.036,
92.96,0.036,
92.98,0.036,
93,0.036,
93.02,0.036,
93.04,0.036,
93.06,0.036,
93.08,0.036,
93.1,0.036,
93.12,0.036,
93.14,0.036,
93.16,0.036,
93.18,0.036,
93.2,0.036,
93.22,0.036,
93.24,0.036,
93.26,0.036,
93.28,0.036,
93.3,0.036,
93.32,0.036,
93.34,0.036,
93.36,0.036,
93.38,0.036,
93.4,0.036,
93.42,0.036,
93.44,0.036,
93.46,0.036,
93.48,0.036,
93.5,0.036,
93.52,0.036,
93.54,0.036,
93.56,0.036,
93.58,0.036,
93.6,0.036,
93.62,0.036,
93.64,0.036,
93.66,0.036,
93.68,0.036,
93.7,0.036,
93.72,0.036,
93.74,0.036,
93.76,0.036,
93.78,0.036,
93.8,0.036,
93.82,0.036,
93.84,0.036,
93.86,0.036,
93.88,0.036,
93.9,0.036,
93.92,0.036,
93.94,0.036,
93.96,0.036,
93.98,0.036,
94,0.036,
94.02,0.036,
94.04,0.036,
94.06,0.036,
94.08,0.036,
94.1,0.036,
94.12,0.036,
94.14,0.036,
94.16,0.036,
94.18,0.036,
94.2,0.036,
94.22,0.036,
94.24,0.036,
94.26,0.036,
94.28,0.036,
94.3,0.036,
94.32,0.036,
94.34,0.036,
94.36,0.036,
94.38,0.036,
94.4,0.036,
94.42,0.036,
94.44,0.036,
94.46,0.036,
94.48,0.036,
94.5,0.036,
94.52,0.036,
94.54,0.036,
94.56,0.036,
94.58,0.036,
94.6,0.036,
94.62,0.036,
94.64,0.036,
94.66,0.036,
94.68,0.036,
94.7,0.036,
94.72,0.036,
94.74,0.036,
94.76,0.036,
94.78,0.036,
94.8,0.036,
94.82,0.036,
94.84,0.036,
94.86,0.036,
94.88,0.036,
94.9,0.036,
94.92,0.036,
94.94,0.036,
94.96,0.036,
94.98,0.036,
95,0.036,
95.02,0.036,
95.04,0.036,
